EXPERIMENT FILE
Version = 2

[ Experiment Parameters ]
Experiment Description= ID 
Number_of_Regions_in_Experiment= 1 

Original_File_name= C:\alexesca\data\Noise]\id120314.xps 
Instrument= HP ESCA West
Date= 12-03-2014
Time=  12:59:49

[ Layer Parameters ]
Layer_Type= XPS

[ Region 1 Parameters ]
Region_Description = Quick_sweep_0.5eVstep_x1           
BEcenter(eV) = 575.000000
BEwidth(eV) = 162.000000
BEstep(eV) = 0.503125
Dwell_Time(sec) = 1.000000
N_o_scans = 1  
N_o_Channels = 322  
Scan_mode = 0  (DITHERED)

[ L= 1 R= 1 ]
BEcenter= 575.000 
BEwidth= -161.503
Excitation= 1486.600
Time_p_channel= 18.286  
Size= 322
655.752  3.19000000e+02 
655.248  3.77000000e+02 
654.745  3.29000000e+02 
654.242  3.21000000e+02 
653.739  3.56000000e+02 
653.236  3.52000000e+02 
652.733  3.42000000e+02 
652.230  3.18000000e+02 
651.727  3.31000000e+02 
651.223  3.40000000e+02 
650.720  3.30000000e+02 
650.217  3.57000000e+02 
649.714  3.41000000e+02 
649.211  3.41000000e+02 
648.708  3.31000000e+02 
648.205  3.63000000e+02 
647.702  3.04000000e+02 
647.198  3.52000000e+02 
646.695  3.09000000e+02 
646.192  3.37000000e+02 
645.689  3.27000000e+02 
645.186  3.31000000e+02 
644.683  3.50000000e+02 
644.180  3.14000000e+02 
643.677  3.32000000e+02 
643.173  3.47000000e+02 
642.670  3.53000000e+02 
642.167  3.56000000e+02 
641.664  3.37000000e+02 
641.161  3.31000000e+02 
640.658  3.82000000e+02 
640.155  3.37000000e+02 
639.652  3.68000000e+02 
639.148  3.34000000e+02 
638.645  3.39000000e+02 
638.142  3.09000000e+02 
637.639  3.44000000e+02 
637.136  3.40000000e+02 
636.633  3.22000000e+02 
636.130  3.25000000e+02 
635.627  3.30000000e+02 
635.123  3.40000000e+02 
634.620  3.13000000e+02 
634.117  3.42000000e+02 
633.614  3.35000000e+02 
633.111  3.18000000e+02 
632.608  3.25000000e+02 
632.105  3.34000000e+02 
631.602  3.54000000e+02 
631.098  3.33000000e+02 
630.595  3.40000000e+02 
630.092  3.25000000e+02 
629.589  3.24000000e+02 
629.086  3.21000000e+02 
628.583  3.23000000e+02 
628.080  3.46000000e+02 
627.577  3.40000000e+02 
627.073  3.41000000e+02 
626.570  3.19000000e+02 
626.067  3.68000000e+02 
625.564  3.33000000e+02 
625.061  3.47000000e+02 
624.558  3.19000000e+02 
624.055  3.40000000e+02 
623.552  3.02000000e+02 
623.048  3.30000000e+02 
622.545  3.05000000e+02 
622.042  3.35000000e+02 
621.539  3.65000000e+02 
621.036  3.47000000e+02 
620.533  3.23000000e+02 
620.030  3.38000000e+02 
619.527  3.27000000e+02 
619.023  3.22000000e+02 
618.520  3.81000000e+02 
618.017  3.24000000e+02 
617.514  3.17000000e+02 
617.011  3.01000000e+02 
616.508  3.10000000e+02 
616.005  3.31000000e+02 
615.502  3.85000000e+02 
614.998  3.47000000e+02 
614.495  3.30000000e+02 
613.992  3.55000000e+02 
613.489  3.30000000e+02 
612.986  3.04000000e+02 
612.483  3.60000000e+02 
611.980  3.34000000e+02 
611.477  3.46000000e+02 
610.973  3.56000000e+02 
610.470  3.47000000e+02 
609.967  3.33000000e+02 
609.464  3.54000000e+02 
608.961  3.32000000e+02 
608.458  3.26000000e+02 
607.955  3.57000000e+02 
607.452  3.51000000e+02 
606.948  3.37000000e+02 
606.445  3.52000000e+02 
605.942  3.38000000e+02 
605.439  3.14000000e+02 
604.936  3.30000000e+02 
604.433  3.40000000e+02 
603.930  3.52000000e+02 
603.427  3.56000000e+02 
602.923  3.27000000e+02 
602.420  3.55000000e+02 
601.917  3.28000000e+02 
601.414  3.25000000e+02 
600.911  3.45000000e+02 
600.408  3.36000000e+02 
599.905  3.58000000e+02 
599.402  3.75000000e+02 
598.898  3.62000000e+02 
598.395  3.49000000e+02 
597.892  3.22000000e+02 
597.389  3.52000000e+02 
596.886  3.61000000e+02 
596.383  3.43000000e+02 
595.880  3.53000000e+02 
595.377  3.22000000e+02 
594.873  3.66000000e+02 
594.370  3.69000000e+02 
593.867  3.31000000e+02 
593.364  3.58000000e+02 
592.861  3.56000000e+02 
592.358  3.52000000e+02 
591.855  3.68000000e+02 
591.352  3.80000000e+02 
590.848  3.47000000e+02 
590.345  3.55000000e+02 
589.842  3.74000000e+02 
589.339  3.36000000e+02 
588.836  3.56000000e+02 
588.333  3.46000000e+02 
587.830  3.83000000e+02 
587.327  3.28000000e+02 
586.823  3.54000000e+02 
586.320  3.72000000e+02 
585.817  3.30000000e+02 
585.314  3.69000000e+02 
584.811  3.56000000e+02 
584.308  3.80000000e+02 
583.805  3.67000000e+02 
583.302  3.48000000e+02 
582.798  3.37000000e+02 
582.295  3.58000000e+02 
581.792  3.67000000e+02 
581.289  3.41000000e+02 
580.786  3.45000000e+02 
580.283  3.45000000e+02 
579.780  3.63000000e+02 
579.277  3.26000000e+02 
578.773  3.61000000e+02 
578.270  3.32000000e+02 
577.767  3.45000000e+02 
577.264  3.67000000e+02 
576.761  3.42000000e+02 
576.258  3.54000000e+02 
575.755  3.53000000e+02 
575.252  3.48000000e+02 
574.748  3.52000000e+02 
574.245  3.48000000e+02 
573.742  3.52000000e+02 
573.239  3.57000000e+02 
572.736  3.70000000e+02 
572.233  3.52000000e+02 
571.730  3.56000000e+02 
571.227  3.43000000e+02 
570.723  3.46000000e+02 
570.220  3.71000000e+02 
569.717  3.76000000e+02 
569.214  3.75000000e+02 
568.711  4.08000000e+02 
568.208  3.64000000e+02 
567.705  3.90000000e+02 
567.202  3.76000000e+02 
566.698  3.81000000e+02 
566.195  3.98000000e+02 
565.692  3.47000000e+02 
565.189  3.70000000e+02 
564.686  3.67000000e+02 
564.183  4.19000000e+02 
563.680  3.79000000e+02 
563.177  3.88000000e+02 
562.673  4.04000000e+02 
562.170  4.13000000e+02 
561.667  3.90000000e+02 
561.164  3.81000000e+02 
560.661  3.52000000e+02 
560.158  3.55000000e+02 
559.655  3.51000000e+02 
559.152  3.59000000e+02 
558.648  3.44000000e+02 
558.145  3.62000000e+02 
557.642  3.25000000e+02 
557.139  3.33000000e+02 
556.636  3.27000000e+02 
556.133  2.96000000e+02 
555.630  3.15000000e+02 
555.127  3.38000000e+02 
554.623  3.46000000e+02 
554.120  3.02000000e+02 
553.617  3.21000000e+02 
553.114  2.88000000e+02 
552.611  2.82000000e+02 
552.108  2.87000000e+02 
551.605  2.97000000e+02 
551.102  2.65000000e+02 
550.598  2.69000000e+02 
550.095  2.78000000e+02 
549.592  2.76000000e+02 
549.089  2.44000000e+02 
548.586  2.10000000e+02 
548.083  2.40000000e+02 
547.580  2.19000000e+02 
547.077  2.70000000e+02 
546.573  2.31000000e+02 
546.070  2.42000000e+02 
545.567  2.42000000e+02 
545.064  2.77000000e+02 
544.561  3.05000000e+02 
544.058  3.68000000e+02 
543.555  5.23000000e+02 
543.052  7.51000000e+02 
542.548  1.02500000e+03 
542.045  1.27400000e+03 
541.542  1.45900000e+03 
541.039  1.41300000e+03 
540.536  1.06600000e+03 
540.033  6.12000000e+02 
539.530  3.52000000e+02 
539.027  2.68000000e+02 
538.523  2.23000000e+02 
538.020  2.52000000e+02 
537.517  2.09000000e+02 
537.014  2.10000000e+02 
536.511  2.12000000e+02 
536.008  1.97000000e+02 
535.505  2.12000000e+02 
535.002  2.18000000e+02 
534.498  2.11000000e+02 
533.995  1.91000000e+02 
533.492  2.22000000e+02 
532.989  2.29000000e+02 
532.486  2.07000000e+02 
531.983  2.44000000e+02 
531.480  2.08000000e+02 
530.977  2.26000000e+02 
530.473  2.00000000e+02 
529.970  2.38000000e+02 
529.467  2.23000000e+02 
528.964  2.02000000e+02 
528.461  2.27000000e+02 
527.958  2.25000000e+02 
527.455  2.05000000e+02 
526.952  1.88000000e+02 
526.448  2.42000000e+02 
525.945  2.13000000e+02 
525.442  2.30000000e+02 
524.939  2.11000000e+02 
524.436  1.94000000e+02 
523.933  2.16000000e+02 
523.430  2.25000000e+02 
522.927  2.21000000e+02 
522.423  2.27000000e+02 
521.920  2.23000000e+02 
521.417  2.09000000e+02 
520.914  1.97000000e+02 
520.411  2.19000000e+02 
519.908  2.13000000e+02 
519.405  2.11000000e+02 
518.902  2.00000000e+02 
518.398  2.04000000e+02 
517.895  2.22000000e+02 
517.392  2.04000000e+02 
516.889  2.44000000e+02 
516.386  2.14000000e+02 
515.883  2.27000000e+02 
515.380  1.97000000e+02 
514.877  2.15000000e+02 
514.373  2.00000000e+02 
513.870  2.07000000e+02 
513.367  2.00000000e+02 
512.864  2.40000000e+02 
512.361  2.15000000e+02 
511.858  2.08000000e+02 
511.355  2.25000000e+02 
510.852  2.43000000e+02 
510.348  2.46000000e+02 
509.845  2.23000000e+02 
509.342  2.23000000e+02 
508.839  2.28000000e+02 
508.336  2.18000000e+02 
507.833  1.97000000e+02 
507.330  2.12000000e+02 
506.827  2.42000000e+02 
506.323  2.21000000e+02 
505.820  2.30000000e+02 
505.317  2.18000000e+02 
504.814  1.86000000e+02 
504.311  2.26000000e+02 
503.808  2.23000000e+02 
503.305  2.12000000e+02 
502.802  2.12000000e+02 
502.298  2.20000000e+02 
501.795  2.12000000e+02 
501.292  1.94000000e+02 
500.789  2.18000000e+02 
500.286  2.07000000e+02 
499.783  2.22000000e+02 
499.280  2.25000000e+02 
498.777  2.11000000e+02 
498.273  2.13000000e+02 
497.770  2.36000000e+02 
497.267  2.19000000e+02 
496.764  2.13000000e+02 
496.261  2.17000000e+02 
495.758  1.98000000e+02 
495.255  2.15000000e+02 
494.752  2.16000000e+02 
494.248  2.23000000e+02 

