EXPERIMENT FILE
Version = 2

[ Experiment Parameters ]
Experiment Description= <none> 
Number_of_Regions_in_Experiment= 1 

Original_File_name= C:\alexesca\data\0817_test2.xps 
Instrument= HP ESCA West
Date= 08-17-2012
Time=  14:49:15

[ Layer Parameters ]
Layer_Type= XPS

[ Region 1 Parameters ]
Region_Description = Au quick Dithered Scan Test        
BEcenter(eV) = 91.000000
BEwidth(eV) = 10.000000
BEstep(eV) = 0.035937
Dwell_Time(sec) = 0.100000
N_o_scans = 1  
N_o_Channels = 278  
Scan_mode = 0  (DITHERED)

[ L= 1 R= 1 ]
BEcenter= 91.000  
BEwidth= -9.955  
Excitation= 1486.600
Time_p_channel= 25.600  
Size= 278
95.977   0.00000000e+00 
95.941   1.00000000e+00 
95.905   0.00000000e+00 
95.870   0.00000000e+00 
95.834   0.00000000e+00 
95.798   0.00000000e+00 
95.762   1.00000000e+00 
95.726   0.00000000e+00 
95.690   0.00000000e+00 
95.654   0.00000000e+00 
95.618   0.00000000e+00 
95.582   0.00000000e+00 
95.546   1.00000000e+00 
95.510   0.00000000e+00 
95.474   0.00000000e+00 
95.438   0.00000000e+00 
95.402   0.00000000e+00 
95.366   0.00000000e+00 
95.330   0.00000000e+00 
95.295   0.00000000e+00 
95.259   0.00000000e+00 
95.223   0.00000000e+00 
95.187   0.00000000e+00 
95.151   0.00000000e+00 
95.115   0.00000000e+00 
95.079   0.00000000e+00 
95.043   1.00000000e+00 
95.007   0.00000000e+00 
94.971   0.00000000e+00 
94.935   0.00000000e+00 
94.899   0.00000000e+00 
94.863   0.00000000e+00 
94.827   1.00000000e+00 
94.791   0.00000000e+00 
94.755   0.00000000e+00 
94.720   0.00000000e+00 
94.684   0.00000000e+00 
94.648   0.00000000e+00 
94.612   0.00000000e+00 
94.576   0.00000000e+00 
94.540   0.00000000e+00 
94.504   0.00000000e+00 
94.468   0.00000000e+00 
94.432   0.00000000e+00 
94.396   0.00000000e+00 
94.360   0.00000000e+00 
94.324   1.00000000e+00 
94.288   0.00000000e+00 
94.252   0.00000000e+00 
94.216   0.00000000e+00 
94.180   0.00000000e+00 
94.145   0.00000000e+00 
94.109   0.00000000e+00 
94.073   0.00000000e+00 
94.037   0.00000000e+00 
94.001   0.00000000e+00 
93.965   0.00000000e+00 
93.929   0.00000000e+00 
93.893   0.00000000e+00 
93.857   0.00000000e+00 
93.821   0.00000000e+00 
93.785   0.00000000e+00 
93.749   0.00000000e+00 
93.713   1.00000000e+00 
93.677   0.00000000e+00 
93.641   0.00000000e+00 
93.605   0.00000000e+00 
93.570   1.00000000e+00 
93.534   0.00000000e+00 
93.498   0.00000000e+00 
93.462   0.00000000e+00 
93.426   0.00000000e+00 
93.390   0.00000000e+00 
93.354   0.00000000e+00 
93.318   0.00000000e+00 
93.282   0.00000000e+00 
93.246   0.00000000e+00 
93.210   0.00000000e+00 
93.174   0.00000000e+00 
93.138   0.00000000e+00 
93.102   0.00000000e+00 
93.066   0.00000000e+00 
93.030   0.00000000e+00 
92.995   0.00000000e+00 
92.959   0.00000000e+00 
92.923   0.00000000e+00 
92.887   0.00000000e+00 
92.851   0.00000000e+00 
92.815   0.00000000e+00 
92.779   0.00000000e+00 
92.743   1.00000000e+00 
92.707   0.00000000e+00 
92.671   0.00000000e+00 
92.635   0.00000000e+00 
92.599   0.00000000e+00 
92.563   1.00000000e+00 
92.527   0.00000000e+00 
92.491   0.00000000e+00 
92.455   0.00000000e+00 
92.420   0.00000000e+00 
92.384   0.00000000e+00 
92.348   0.00000000e+00 
92.312   0.00000000e+00 
92.276   0.00000000e+00 
92.240   0.00000000e+00 
92.204   0.00000000e+00 
92.168   0.00000000e+00 
92.132   0.00000000e+00 
92.096   1.00000000e+00 
92.060   1.00000000e+00 
92.024   0.00000000e+00 
91.988   1.00000000e+00 
91.952   0.00000000e+00 
91.916   0.00000000e+00 
91.880   0.00000000e+00 
91.845   0.00000000e+00 
91.809   0.00000000e+00 
91.773   0.00000000e+00 
91.737   0.00000000e+00 
91.701   2.00000000e+00 
91.665   0.00000000e+00 
91.629   0.00000000e+00 
91.593   0.00000000e+00 
91.557   0.00000000e+00 
91.521   0.00000000e+00 
91.485   0.00000000e+00 
91.449   0.00000000e+00 
91.413   0.00000000e+00 
91.377   1.00000000e+00 
91.341   1.00000000e+00 
91.305   1.00000000e+00 
91.270   0.00000000e+00 
91.234   0.00000000e+00 
91.198   0.00000000e+00 
91.162   0.00000000e+00 
91.126   1.00000000e+00 
91.090   0.00000000e+00 
91.054   0.00000000e+00 
91.018   0.00000000e+00 
90.982   0.00000000e+00 
90.946   1.00000000e+00 
90.910   0.00000000e+00 
90.874   0.00000000e+00 
90.838   0.00000000e+00 
90.802   1.00000000e+00 
90.766   0.00000000e+00 
90.730   0.00000000e+00 
90.695   0.00000000e+00 
90.659   0.00000000e+00 
90.623   0.00000000e+00 
90.587   0.00000000e+00 
90.551   1.00000000e+00 
90.515   0.00000000e+00 
90.479   0.00000000e+00 
90.443   0.00000000e+00 
90.407   0.00000000e+00 
90.371   0.00000000e+00 
90.335   0.00000000e+00 
90.299   1.00000000e+00 
90.263   0.00000000e+00 
90.227   0.00000000e+00 
90.191   0.00000000e+00 
90.155   0.00000000e+00 
90.120   0.00000000e+00 
90.084   0.00000000e+00 
90.048   0.00000000e+00 
90.012   0.00000000e+00 
89.976   0.00000000e+00 
89.940   1.00000000e+00 
89.904   0.00000000e+00 
89.868   0.00000000e+00 
89.832   0.00000000e+00 
89.796   0.00000000e+00 
89.760   0.00000000e+00 
89.724   2.00000000e+00 
89.688   0.00000000e+00 
89.652   0.00000000e+00 
89.616   0.00000000e+00 
89.580   0.00000000e+00 
89.545   0.00000000e+00 
89.509   0.00000000e+00 
89.473   0.00000000e+00 
89.437   0.00000000e+00 
89.401   0.00000000e+00 
89.365   1.00000000e+00 
89.329   0.00000000e+00 
89.293   0.00000000e+00 
89.257   1.00000000e+00 
89.221   0.00000000e+00 
89.185   0.00000000e+00 
89.149   0.00000000e+00 
89.113   0.00000000e+00 
89.077   0.00000000e+00 
89.041   0.00000000e+00 
89.005   0.00000000e+00 
88.970   0.00000000e+00 
88.934   0.00000000e+00 
88.898   0.00000000e+00 
88.862   0.00000000e+00 
88.826   0.00000000e+00 
88.790   0.00000000e+00 
88.754   0.00000000e+00 
88.718   0.00000000e+00 
88.682   1.00000000e+00 
88.646   0.00000000e+00 
88.610   0.00000000e+00 
88.574   0.00000000e+00 
88.538   0.00000000e+00 
88.502   0.00000000e+00 
88.466   0.00000000e+00 
88.430   0.00000000e+00 
88.395   0.00000000e+00 
88.359   0.00000000e+00 
88.323   0.00000000e+00 
88.287   0.00000000e+00 
88.251   0.00000000e+00 
88.215   0.00000000e+00 
88.179   0.00000000e+00 
88.143   0.00000000e+00 
88.107   0.00000000e+00 
88.071   0.00000000e+00 
88.035   0.00000000e+00 
87.999   0.00000000e+00 
87.963   0.00000000e+00 
87.927   0.00000000e+00 
87.891   0.00000000e+00 
87.855   0.00000000e+00 
87.820   0.00000000e+00 
87.784   0.00000000e+00 
87.748   0.00000000e+00 
87.712   0.00000000e+00 
87.676   0.00000000e+00 
87.640   0.00000000e+00 
87.604   0.00000000e+00 
87.568   0.00000000e+00 
87.532   0.00000000e+00 
87.496   0.00000000e+00 
87.460   0.00000000e+00 
87.424   0.00000000e+00 
87.388   1.00000000e+00 
87.352   0.00000000e+00 
87.316   0.00000000e+00 
87.280   0.00000000e+00 
87.245   0.00000000e+00 
87.209   0.00000000e+00 
87.173   0.00000000e+00 
87.137   0.00000000e+00 
87.101   0.00000000e+00 
87.065   0.00000000e+00 
87.029   0.00000000e+00 
86.993   0.00000000e+00 
86.957   0.00000000e+00 
86.921   0.00000000e+00 
86.885   0.00000000e+00 
86.849   0.00000000e+00 
86.813   1.00000000e+00 
86.777   0.00000000e+00 
86.741   0.00000000e+00 
86.705   0.00000000e+00 
86.670   0.00000000e+00 
86.634   0.00000000e+00 
86.598   0.00000000e+00 
86.562   0.00000000e+00 
86.526   0.00000000e+00 
86.490   0.00000000e+00 
86.454   0.00000000e+00 
86.418   0.00000000e+00 
86.382   0.00000000e+00 
86.346   0.00000000e+00 
86.310   0.00000000e+00 
86.274   0.00000000e+00 
86.238   0.00000000e+00 
86.202   1.00000000e+00 
86.166   0.00000000e+00 
86.130   0.00000000e+00 
86.095   0.00000000e+00 
86.059   0.00000000e+00 
86.023   0.00000000e+00 

