EXPERIMENT FILE
Version = 2

[ Experiment Parameters ]
Experiment Description= <none> 
Number_of_Regions_in_Experiment= 1 

Original_File_name= C:\alexesca\data\11292012 Carbon_aquadag_test.xps 
Instrument= HP ESCA West
Date= 11-29-2012
Time=  11:29:34

[ Layer Parameters ]
Layer_Type= XPS

[ Region 1 Parameters ]
Region_Description = Carbon 1s calibration test???      
BEcenter(eV) = 292.000000
BEwidth(eV) = 9.200000
BEstep(eV) = 0.143750
Dwell_Time(sec) = 0.143750
N_o_scans = 5  
N_o_Channels = 64  
Scan_mode = 0  (DITHERED)

[ L= 1 R= 1 ]
BEcenter= 292.000 
BEwidth= -9.056  
Excitation= 1486.600
Time_p_channel= 46.000  
Size= 64
296.528  2.62000000e+02 
296.384  2.83000000e+02 
296.241  2.89000000e+02 
296.097  3.23000000e+02 
295.953  3.18000000e+02 
295.809  3.18000000e+02 
295.666  3.54000000e+02 
295.522  3.73000000e+02 
295.378  3.79000000e+02 
295.234  3.84000000e+02 
295.091  4.01000000e+02 
294.947  4.33000000e+02 
294.803  4.43000000e+02 
294.659  5.01000000e+02 
294.516  5.32000000e+02 
294.372  5.66000000e+02 
294.228  6.11000000e+02 
294.084  6.41000000e+02 
293.941  6.88000000e+02 
293.797  7.44000000e+02 
293.653  8.00000000e+02 
293.509  8.54000000e+02 
293.366  8.69000000e+02 
293.222  9.49000000e+02 
293.078  1.07500000e+03 
292.934  1.22000000e+03 
292.791  1.35900000e+03 
292.647  1.56500000e+03 
292.503  1.70200000e+03 
292.359  1.85200000e+03 
292.216  2.08000000e+03 
292.072  2.23800000e+03 
291.928  2.30800000e+03 
291.784  2.11600000e+03 
291.641  1.75900000e+03 
291.497  1.30200000e+03 
291.353  8.14000000e+02 
291.209  4.51000000e+02 
291.066  2.82000000e+02 
290.922  1.55000000e+02 
290.778  1.12000000e+02 
290.634  8.40000000e+01 
290.491  6.90000000e+01 
290.347  6.60000000e+01 
290.203  5.00000000e+01 
290.059  5.00000000e+01 
289.916  5.50000000e+01 
289.772  4.50000000e+01 
289.628  4.20000000e+01 
289.484  4.10000000e+01 
289.341  4.00000000e+01 
289.197  2.60000000e+01 
289.053  2.50000000e+01 
288.909  2.80000000e+01 
288.766  1.90000000e+01 
288.622  2.40000000e+01 
288.478  2.40000000e+01 
288.334  2.60000000e+01 
288.191  1.30000000e+01 
288.047  1.30000000e+01 
287.903  2.00000000e+01 
287.759  1.60000000e+01 
287.616  2.30000000e+01 
287.472  2.10000000e+01 

