EXPERIMENT FILE
Version = 2

[ Experiment Parameters ]
Experiment Description= <none> 
Number_of_Regions_in_Experiment= 1 

Original_File_name= C:\alexesca\data\11292012 Carbon_aquadag_test_0359eVstep.xps 
Instrument= HP ESCA West
Date= 11-29-2012
Time=  15:05:21

[ Layer Parameters ]
Layer_Type= XPS

[ Region 1 Parameters ]
Region_Description = Carbon 1s calibration test .0359step 10eVwidth
BEcenter(eV) = 292.000000
BEwidth(eV) = 10.000000
BEstep(eV) = 0.035937
Dwell_Time(sec) = 0.036000
N_o_scans = 5  
N_o_Channels = 278  
Scan_mode = 0  (DITHERED)

[ L= 1 R= 1 ]
BEcenter= 292.000 
BEwidth= -9.955  
Excitation= 1486.600
Time_p_channel= 46.080  
Size= 278
296.977  2.60000000e+01 
296.941  4.00000000e+01 
296.905  1.80000000e+01 
296.870  3.20000000e+01 
296.834  2.20000000e+01 
296.798  4.20000000e+01 
296.762  4.00000000e+01 
296.726  3.80000000e+01 
296.690  4.10000000e+01 
296.654  3.00000000e+01 
296.618  3.80000000e+01 
296.582  3.10000000e+01 
296.546  4.10000000e+01 
296.510  3.60000000e+01 
296.474  4.20000000e+01 
296.438  2.30000000e+01 
296.402  3.80000000e+01 
296.366  2.70000000e+01 
296.330  3.70000000e+01 
296.295  3.30000000e+01 
296.259  3.20000000e+01 
296.223  3.80000000e+01 
296.187  4.10000000e+01 
296.151  2.50000000e+01 
296.115  3.80000000e+01 
296.079  4.20000000e+01 
296.043  3.40000000e+01 
296.007  3.40000000e+01 
295.971  3.40000000e+01 
295.935  3.50000000e+01 
295.899  2.80000000e+01 
295.863  3.40000000e+01 
295.827  3.80000000e+01 
295.791  4.40000000e+01 
295.755  4.40000000e+01 
295.720  4.40000000e+01 
295.684  4.70000000e+01 
295.648  6.60000000e+01 
295.612  4.20000000e+01 
295.576  4.40000000e+01 
295.540  4.00000000e+01 
295.504  3.80000000e+01 
295.468  4.80000000e+01 
295.432  4.60000000e+01 
295.396  5.40000000e+01 
295.360  4.30000000e+01 
295.324  4.40000000e+01 
295.288  4.90000000e+01 
295.252  4.40000000e+01 
295.216  4.50000000e+01 
295.180  5.10000000e+01 
295.145  5.20000000e+01 
295.109  5.70000000e+01 
295.073  4.40000000e+01 
295.037  4.20000000e+01 
295.001  4.90000000e+01 
294.965  5.20000000e+01 
294.929  4.30000000e+01 
294.893  3.70000000e+01 
294.857  6.90000000e+01 
294.821  6.30000000e+01 
294.785  6.40000000e+01 
294.749  5.70000000e+01 
294.713  5.30000000e+01 
294.677  4.60000000e+01 
294.641  5.70000000e+01 
294.605  7.10000000e+01 
294.570  5.10000000e+01 
294.534  5.70000000e+01 
294.498  8.30000000e+01 
294.462  6.30000000e+01 
294.426  6.60000000e+01 
294.390  5.50000000e+01 
294.354  6.30000000e+01 
294.318  7.70000000e+01 
294.282  6.00000000e+01 
294.246  5.60000000e+01 
294.210  7.90000000e+01 
294.174  7.50000000e+01 
294.138  7.50000000e+01 
294.102  6.90000000e+01 
294.066  7.40000000e+01 
294.030  7.00000000e+01 
293.995  1.01000000e+02 
293.959  9.60000000e+01 
293.923  9.20000000e+01 
293.887  7.10000000e+01 
293.851  7.60000000e+01 
293.815  8.80000000e+01 
293.779  1.10000000e+02 
293.743  9.00000000e+01 
293.707  1.02000000e+02 
293.671  9.80000000e+01 
293.635  9.60000000e+01 
293.599  9.10000000e+01 
293.563  9.30000000e+01 
293.527  9.20000000e+01 
293.491  8.60000000e+01 
293.455  9.30000000e+01 
293.420  8.30000000e+01 
293.384  7.10000000e+01 
293.348  9.70000000e+01 
293.312  9.80000000e+01 
293.276  9.70000000e+01 
293.240  9.70000000e+01 
293.204  1.06000000e+02 
293.168  1.15000000e+02 
293.132  9.50000000e+01 
293.096  1.23000000e+02 
293.060  9.40000000e+01 
293.024  1.34000000e+02 
292.988  1.17000000e+02 
292.952  1.16000000e+02 
292.916  1.13000000e+02 
292.880  1.25000000e+02 
292.845  1.24000000e+02 
292.809  1.40000000e+02 
292.773  1.52000000e+02 
292.737  1.46000000e+02 
292.701  1.43000000e+02 
292.665  1.38000000e+02 
292.629  1.63000000e+02 
292.593  1.53000000e+02 
292.557  1.55000000e+02 
292.521  1.71000000e+02 
292.485  1.95000000e+02 
292.449  2.08000000e+02 
292.413  2.13000000e+02 
292.377  2.12000000e+02 
292.341  2.22000000e+02 
292.305  2.34000000e+02 
292.270  2.44000000e+02 
292.234  2.40000000e+02 
292.198  2.67000000e+02 
292.162  2.73000000e+02 
292.126  2.67000000e+02 
292.090  2.85000000e+02 
292.054  3.06000000e+02 
292.018  3.33000000e+02 
291.982  3.24000000e+02 
291.946  3.22000000e+02 
291.910  3.27000000e+02 
291.874  3.10000000e+02 
291.838  2.98000000e+02 
291.802  2.99000000e+02 
291.766  2.97000000e+02 
291.730  3.16000000e+02 
291.695  3.09000000e+02 
291.659  2.75000000e+02 
291.623  2.45000000e+02 
291.587  2.14000000e+02 
291.551  1.96000000e+02 
291.515  1.97000000e+02 
291.479  1.73000000e+02 
291.443  1.38000000e+02 
291.407  1.17000000e+02 
291.371  1.07000000e+02 
291.335  8.50000000e+01 
291.299  6.90000000e+01 
291.263  6.30000000e+01 
291.227  5.50000000e+01 
291.191  6.50000000e+01 
291.155  5.10000000e+01 
291.120  4.50000000e+01 
291.084  4.00000000e+01 
291.048  2.80000000e+01 
291.012  2.20000000e+01 
290.976  2.10000000e+01 
290.940  2.00000000e+01 
290.904  2.40000000e+01 
290.868  1.50000000e+01 
290.832  2.20000000e+01 
290.796  1.00000000e+01 
290.760  2.10000000e+01 
290.724  9.00000000e+00 
290.688  1.50000000e+01 
290.652  1.20000000e+01 
290.616  1.10000000e+01 
290.580  1.00000000e+01 
290.545  1.00000000e+01 
290.509  1.20000000e+01 
290.473  7.00000000e+00 
290.437  4.00000000e+00 
290.401  1.20000000e+01 
290.365  6.00000000e+00 
290.329  4.00000000e+00 
290.293  8.00000000e+00 
290.257  6.00000000e+00 
290.221  1.00000000e+01 
290.185  5.00000000e+00 
290.149  3.00000000e+00 
290.113  6.00000000e+00 
290.077  5.00000000e+00 
290.041  5.00000000e+00 
290.005  8.00000000e+00 
289.970  5.00000000e+00 
289.934  6.00000000e+00 
289.898  5.00000000e+00 
289.862  8.00000000e+00 
289.826  4.00000000e+00 
289.790  3.00000000e+00 
289.754  7.00000000e+00 
289.718  1.00000000e+00 
289.682  2.00000000e+00 
289.646  5.00000000e+00 
289.610  1.00000000e+01 
289.574  4.00000000e+00 
289.538  3.00000000e+00 
289.502  7.00000000e+00 
289.466  6.00000000e+00 
289.430  5.00000000e+00 
289.395  6.00000000e+00 
289.359  2.00000000e+00 
289.323  7.00000000e+00 
289.287  5.00000000e+00 
289.251  4.00000000e+00 
289.215  7.00000000e+00 
289.179  2.00000000e+00 
289.143  6.00000000e+00 
289.107  3.00000000e+00 
289.071  2.00000000e+00 
289.035  3.00000000e+00 
288.999  4.00000000e+00 
288.963  6.00000000e+00 
288.927  6.00000000e+00 
288.891  5.00000000e+00 
288.855  5.00000000e+00 
288.820  3.00000000e+00 
288.784  1.00000000e+00 
288.748  2.00000000e+00 
288.712  3.00000000e+00 
288.676  2.00000000e+00 
288.640  2.00000000e+00 
288.604  4.00000000e+00 
288.568  1.00000000e+00 
288.532  4.00000000e+00 
288.496  3.00000000e+00 
288.460  1.00000000e+00 
288.424  2.00000000e+00 
288.388  4.00000000e+00 
288.352  2.00000000e+00 
288.316  0.00000000e+00 
288.280  2.00000000e+00 
288.245  0.00000000e+00 
288.209  2.00000000e+00 
288.173  5.00000000e+00 
288.137  2.00000000e+00 
288.101  4.00000000e+00 
288.065  1.00000000e+00 
288.029  4.00000000e+00 
287.993  5.00000000e+00 
287.957  0.00000000e+00 
287.921  0.00000000e+00 
287.885  2.00000000e+00 
287.849  2.00000000e+00 
287.813  3.00000000e+00 
287.777  1.00000000e+00 
287.741  6.00000000e+00 
287.705  0.00000000e+00 
287.670  2.00000000e+00 
287.634  0.00000000e+00 
287.598  3.00000000e+00 
287.562  3.00000000e+00 
287.526  3.00000000e+00 
287.490  6.00000000e+00 
287.454  0.00000000e+00 
287.418  2.00000000e+00 
287.382  5.00000000e+00 
287.346  1.00000000e+00 
287.310  2.00000000e+00 
287.274  3.00000000e+00 
287.238  2.00000000e+00 
287.202  1.00000000e+00 
287.166  4.00000000e+00 
287.130  2.00000000e+00 
287.095  1.00000000e+00 
287.059  1.00000000e+00 
287.023  3.00000000e+00 

