EXPERIMENT FILE
Version = 2

[ Experiment Parameters ]
Experiment Description= <none> 
Number_of_Regions_in_Experiment= 1 

Original_File_name= C:\alexesca\data\wtf.xps 
Instrument= HP ESCA West
Date= 05-23-2013
Time=  11:03:20

[ Layer Parameters ]
Layer_Type= XPS

[ Region 1 Parameters ]
Region_Description = Au 4f Dithered 95eV Center 9.2eV Width
BEcenter(eV) = 95.000000
BEwidth(eV) = 9.200000
BEstep(eV) = 0.035938
Dwell_Time(sec) = 1.000000
N_o_scans = 1  
N_o_Channels = 256  
Scan_mode = 0  (DITHERED)

[ L= 1 R= 1 ]
BEcenter= 95.000  
BEwidth= -9.164  
Excitation= 1486.600
Time_p_channel= 256.000 
Size= 256
99.582   2.00000000e+00 
99.546   2.00000000e+00 
99.510   1.00000000e+00 
99.474   0.00000000e+00 
99.438   0.00000000e+00 
99.402   1.00000000e+00 
99.366   0.00000000e+00 
99.330   0.00000000e+00 
99.295   2.00000000e+00 
99.259   0.00000000e+00 
99.223   6.00000000e+00 
99.187   4.00000000e+00 
99.151   1.00000000e+00 
99.115   2.00000000e+00 
99.079   2.00000000e+00 
99.043   2.00000000e+00 
99.007   1.00000000e+00 
98.971   1.00000000e+00 
98.935   0.00000000e+00 
98.899   1.00000000e+00 
98.863   1.00000000e+00 
98.827   1.00000000e+00 
98.791   1.00000000e+00 
98.755   2.00000000e+00 
98.720   3.00000000e+00 
98.684   3.00000000e+00 
98.648   1.00000000e+00 
98.612   2.00000000e+00 
98.576   2.00000000e+00 
98.540   3.00000000e+00 
98.504   0.00000000e+00 
98.468   2.00000000e+00 
98.432   2.00000000e+00 
98.396   1.00000000e+00 
98.360   1.00000000e+00 
98.324   1.00000000e+00 
98.288   3.00000000e+00 
98.252   0.00000000e+00 
98.216   1.00000000e+00 
98.180   2.00000000e+00 
98.145   1.00000000e+00 
98.109   0.00000000e+00 
98.073   3.00000000e+00 
98.037   2.00000000e+00 
98.001   1.00000000e+00 
97.965   0.00000000e+00 
97.929   0.00000000e+00 
97.893   0.00000000e+00 
97.857   2.00000000e+00 
97.821   2.00000000e+00 
97.785   3.00000000e+00 
97.749   0.00000000e+00 
97.713   1.00000000e+00 
97.677   5.00000000e+00 
97.641   0.00000000e+00 
97.605   0.00000000e+00 
97.570   2.00000000e+00 
97.534   0.00000000e+00 
97.498   0.00000000e+00 
97.462   1.00000000e+00 
97.426   2.00000000e+00 
97.390   2.00000000e+00 
97.354   0.00000000e+00 
97.318   1.00000000e+00 
97.282   0.00000000e+00 
97.246   2.00000000e+00 
97.210   1.00000000e+00 
97.174   2.00000000e+00 
97.138   0.00000000e+00 
97.102   2.00000000e+00 
97.066   1.00000000e+00 
97.030   2.00000000e+00 
96.995   2.00000000e+00 
96.959   2.00000000e+00 
96.923   1.00000000e+00 
96.887   2.00000000e+00 
96.851   0.00000000e+00 
96.815   0.00000000e+00 
96.779   1.00000000e+00 
96.743   2.00000000e+00 
96.707   1.00000000e+00 
96.671   1.00000000e+00 
96.635   3.00000000e+00 
96.599   0.00000000e+00 
96.563   1.00000000e+00 
96.527   4.00000000e+00 
96.491   0.00000000e+00 
96.455   2.00000000e+00 
96.420   0.00000000e+00 
96.384   0.00000000e+00 
96.348   4.00000000e+00 
96.312   1.00000000e+00 
96.276   2.00000000e+00 
96.240   1.00000000e+00 
96.204   0.00000000e+00 
96.168   2.00000000e+00 
96.132   3.00000000e+00 
96.096   2.00000000e+00 
96.060   2.00000000e+00 
96.024   1.00000000e+00 
95.988   3.00000000e+00 
95.952   1.00000000e+00 
95.916   1.00000000e+00 
95.880   1.00000000e+00 
95.845   2.00000000e+00 
95.809   0.00000000e+00 
95.773   0.00000000e+00 
95.737   3.00000000e+00 
95.701   1.00000000e+00 
95.665   2.00000000e+00 
95.629   0.00000000e+00 
95.593   2.00000000e+00 
95.557   1.00000000e+00 
95.521   3.00000000e+00 
95.485   1.00000000e+00 
95.449   0.00000000e+00 
95.413   2.00000000e+00 
95.377   2.00000000e+00 
95.341   3.00000000e+00 
95.305   1.00000000e+00 
95.270   2.00000000e+00 
95.234   1.00000000e+00 
95.198   0.00000000e+00 
95.162   4.00000000e+00 
95.126   6.00000000e+00 
95.090   7.00000000e+00 
95.054   3.00000000e+00 
95.018   0.00000000e+00 
94.982   6.00000000e+00 
94.946   6.00000000e+00 
94.910   2.00000000e+00 
94.874   2.00000000e+00 
94.838   0.00000000e+00 
94.802   3.00000000e+00 
94.766   0.00000000e+00 
94.730   2.00000000e+00 
94.695   1.00000000e+00 
94.659   2.00000000e+00 
94.623   1.00000000e+00 
94.587   1.00000000e+00 
94.551   2.00000000e+00 
94.515   1.00000000e+00 
94.479   1.00000000e+00 
94.443   2.00000000e+00 
94.407   2.00000000e+00 
94.371   2.00000000e+00 
94.335   2.00000000e+00 
94.299   2.00000000e+00 
94.263   2.00000000e+00 
94.227   2.00000000e+00 
94.191   1.00000000e+00 
94.155   3.00000000e+00 
94.120   0.00000000e+00 
94.084   1.00000000e+00 
94.048   0.00000000e+00 
94.012   2.00000000e+00 
93.976   3.00000000e+00 
93.940   1.00000000e+00 
93.904   1.00000000e+00 
93.868   1.00000000e+00 
93.832   1.00000000e+00 
93.796   2.00000000e+00 
93.760   3.00000000e+00 
93.724   1.00000000e+00 
93.688   2.00000000e+00 
93.652   2.00000000e+00 
93.616   0.00000000e+00 
93.580   3.00000000e+00 
93.545   0.00000000e+00 
93.509   0.00000000e+00 
93.473   3.00000000e+00 
93.437   2.00000000e+00 
93.401   2.00000000e+00 
93.365   1.00000000e+00 
93.329   4.00000000e+00 
93.293   1.00000000e+00 
93.257   0.00000000e+00 
93.221   0.00000000e+00 
93.185   3.00000000e+00 
93.149   3.00000000e+00 
93.113   2.00000000e+00 
93.077   3.00000000e+00 
93.041   1.00000000e+00 
93.005   4.00000000e+00 
92.970   1.00000000e+00 
92.934   2.00000000e+00 
92.898   0.00000000e+00 
92.862   2.00000000e+00 
92.826   0.00000000e+00 
92.790   3.00000000e+00 
92.754   0.00000000e+00 
92.718   2.00000000e+00 
92.682   0.00000000e+00 
92.646   0.00000000e+00 
92.610   1.00000000e+00 
92.574   0.00000000e+00 
92.538   1.00000000e+00 
92.502   3.00000000e+00 
92.466   2.00000000e+00 
92.430   1.00000000e+00 
92.395   3.00000000e+00 
92.359   4.00000000e+00 
92.323   0.00000000e+00 
92.287   3.00000000e+00 
92.251   1.00000000e+00 
92.215   2.00000000e+00 
92.179   2.00000000e+00 
92.143   2.00000000e+00 
92.107   2.00000000e+00 
92.071   2.00000000e+00 
92.035   1.00000000e+00 
91.999   0.00000000e+00 
91.963   1.00000000e+00 
91.927   0.00000000e+00 
91.891   1.00000000e+00 
91.855   1.00000000e+00 
91.820   2.00000000e+00 
91.784   2.00000000e+00 
91.748   4.00000000e+00 
91.712   3.00000000e+00 
91.676   0.00000000e+00 
91.640   5.00000000e+00 
91.604   0.00000000e+00 
91.568   4.00000000e+00 
91.532   1.00000000e+00 
91.496   2.00000000e+00 
91.460   0.00000000e+00 
91.424   4.00000000e+00 
91.388   3.00000000e+00 
91.352   3.00000000e+00 
91.316   0.00000000e+00 
91.280   2.00000000e+00 
91.245   1.00000000e+00 
91.209   2.00000000e+00 
91.173   1.00000000e+00 
91.137   1.00000000e+00 
91.101   5.00000000e+00 
91.065   3.00000000e+00 
91.029   1.00000000e+00 
90.993   3.00000000e+00 
90.957   5.00000000e+00 
90.921   3.00000000e+00 
90.885   1.00000000e+00 
90.849   1.00000000e+00 
90.813   1.00000000e+00 
90.777   2.00000000e+00 
90.741   1.00000000e+00 
90.705   4.00000000e+00 
90.670   1.00000000e+00 
90.634   2.00000000e+00 
90.598   1.00000000e+00 
90.562   1.00000000e+00 
90.526   2.00000000e+00 
90.490   2.00000000e+00 
90.454   3.00000000e+00 
90.418   0.00000000e+00 

