EXPERIMENT FILE
Version = 2

[ Experiment Parameters ]
Experiment Description= <none> 
Number_of_Regions_in_Experiment= 1 

Original_File_name= C:\alexesca\data\Noise]\asds.xps 
Instrument= HP ESCA West
Date= 11-19-2014
Time=  23:54:58

[ Layer Parameters ]
Layer_Type= XPS

[ Region 1 Parameters ]
Region_Description = Fixed 500+-9.2                     
BEcenter(eV) = 500.000000
BEwidth(eV) = 9.200000
BEstep(eV) = 0.035938
Dwell_Time(sec) = 1.000000
N_o_scans = 1  
N_o_Channels = 256  
Scan_mode = 1  (FIXED)

[ L= 1 R= 1 ]
BEcenter= 500.000 
BEwidth= -9.200  
Excitation= 1486.600
Time_p_channel= 1.000   
Size= 256
504.600  6.00000000e+00 
504.564  4.00000000e+00 
504.528  4.00000000e+00 
504.492  6.00000000e+00 
504.456  4.00000000e+00 
504.420  4.00000000e+00 
504.384  4.00000000e+00 
504.347  6.00000000e+00 
504.311  1.20000000e+01 
504.275  3.00000000e+00 
504.239  1.00000000e+01 
504.203  6.00000000e+00 
504.167  1.00000000e+01 
504.131  2.00000000e+00 
504.095  9.00000000e+00 
504.059  5.00000000e+00 
504.023  4.00000000e+00 
503.987  9.00000000e+00 
503.951  7.00000000e+00 
503.915  9.00000000e+00 
503.878  1.00000000e+00 
503.842  5.00000000e+00 
503.806  2.00000000e+00 
503.770  3.00000000e+00 
503.734  9.00000000e+00 
503.698  7.00000000e+00 
503.662  2.00000000e+00 
503.626  9.00000000e+00 
503.590  4.00000000e+00 
503.554  3.00000000e+00 
503.518  4.00000000e+00 
503.482  5.00000000e+00 
503.445  5.00000000e+00 
503.409  4.00000000e+00 
503.373  4.00000000e+00 
503.337  3.00000000e+00 
503.301  1.10000000e+01 
503.265  2.00000000e+00 
503.229  4.00000000e+00 
503.193  8.00000000e+00 
503.157  6.00000000e+00 
503.121  1.20000000e+01 
503.085  5.00000000e+00 
503.049  1.10000000e+01 
503.013  3.00000000e+00 
502.976  6.00000000e+00 
502.940  4.00000000e+00 
502.904  3.00000000e+00 
502.868  4.00000000e+00 
502.832  5.00000000e+00 
502.796  5.00000000e+00 
502.760  8.00000000e+00 
502.724  4.00000000e+00 
502.688  4.00000000e+00 
502.652  4.00000000e+00 
502.616  7.00000000e+00 
502.580  8.00000000e+00 
502.544  1.00000000e+01 
502.507  8.00000000e+00 
502.471  4.00000000e+00 
502.435  6.00000000e+00 
502.399  4.00000000e+00 
502.363  2.00000000e+00 
502.327  9.00000000e+00 
502.291  1.10000000e+01 
502.255  6.00000000e+00 
502.219  4.00000000e+00 
502.183  5.00000000e+00 
502.147  4.00000000e+00 
502.111  9.00000000e+00 
502.075  5.00000000e+00 
502.038  8.00000000e+00 
502.002  1.10000000e+01 
501.966  6.00000000e+00 
501.930  4.00000000e+00 
501.894  8.00000000e+00 
501.858  9.00000000e+00 
501.822  1.00000000e+01 
501.786  7.00000000e+00 
501.750  1.10000000e+01 
501.714  3.00000000e+00 
501.678  1.00000000e+01 
501.642  9.00000000e+00 
501.605  6.00000000e+00 
501.569  1.70000000e+01 
501.533  5.00000000e+00 
501.497  7.00000000e+00 
501.461  6.00000000e+00 
501.425  1.10000000e+01 
501.389  6.00000000e+00 
501.353  5.00000000e+00 
501.317  1.20000000e+01 
501.281  1.30000000e+01 
501.245  8.00000000e+00 
501.209  6.00000000e+00 
501.173  4.00000000e+00 
501.136  6.00000000e+00 
501.100  3.00000000e+00 
501.064  5.00000000e+00 
501.028  6.00000000e+00 
500.992  3.00000000e+00 
500.956  2.00000000e+00 
500.920  2.00000000e+00 
500.884  6.00000000e+00 
500.848  1.00000000e+01 
500.812  7.00000000e+00 
500.776  3.00000000e+00 
500.740  4.00000000e+00 
500.704  8.00000000e+00 
500.667  4.00000000e+00 
500.631  2.00000000e+00 
500.595  1.00000000e+01 
500.559  5.00000000e+00 
500.523  6.00000000e+00 
500.487  1.20000000e+01 
500.451  2.00000000e+00 
500.415  8.00000000e+00 
500.379  9.00000000e+00 
500.343  2.00000000e+00 
500.307  5.00000000e+00 
500.271  4.00000000e+00 
500.235  7.00000000e+00 
500.198  5.00000000e+00 
500.162  1.10000000e+01 
500.126  6.00000000e+00 
500.090  2.00000000e+00 
500.054  5.00000000e+00 
500.018  5.00000000e+00 
499.982  5.00000000e+00 
499.946  9.00000000e+00 
499.910  1.30000000e+01 
499.874  3.00000000e+00 
499.838  2.00000000e+00 
499.802  4.00000000e+00 
499.765  9.00000000e+00 
499.729  0.00000000e+00 
499.693  4.00000000e+00 
499.657  6.00000000e+00 
499.621  3.00000000e+00 
499.585  5.00000000e+00 
499.549  5.00000000e+00 
499.513  5.00000000e+00 
499.477  2.00000000e+00 
499.441  1.00000000e+01 
499.405  3.00000000e+00 
499.369  7.00000000e+00 
499.333  5.00000000e+00 
499.296  3.00000000e+00 
499.260  6.00000000e+00 
499.224  2.00000000e+00 
499.188  8.00000000e+00 
499.152  5.00000000e+00 
499.116  9.00000000e+00 
499.080  3.00000000e+00 
499.044  1.00000000e+00 
499.008  5.00000000e+00 
498.972  7.00000000e+00 
498.936  9.00000000e+00 
498.900  5.00000000e+00 
498.864  2.00000000e+00 
498.827  4.00000000e+00 
498.791  2.00000000e+00 
498.755  8.00000000e+00 
498.719  8.00000000e+00 
498.683  0.00000000e+00 
498.647  7.00000000e+00 
498.611  7.00000000e+00 
498.575  8.00000000e+00 
498.539  6.00000000e+00 
498.503  5.00000000e+00 
498.467  7.00000000e+00 
498.431  3.00000000e+00 
498.395  8.00000000e+00 
498.358  6.00000000e+00 
498.322  4.00000000e+00 
498.286  8.00000000e+00 
498.250  8.00000000e+00 
498.214  4.00000000e+00 
498.178  5.00000000e+00 
498.142  1.10000000e+01 
498.106  7.00000000e+00 
498.070  2.00000000e+00 
498.034  8.00000000e+00 
497.998  9.00000000e+00 
497.962  4.00000000e+00 
497.925  1.00000000e+01 
497.889  5.00000000e+00 
497.853  5.00000000e+00 
497.817  5.00000000e+00 
497.781  7.00000000e+00 
497.745  5.00000000e+00 
497.709  4.00000000e+00 
497.673  1.00000000e+01 
497.637  7.00000000e+00 
497.601  5.00000000e+00 
497.565  9.00000000e+00 
497.529  3.00000000e+00 
497.493  1.20000000e+01 
497.456  4.00000000e+00 
497.420  4.00000000e+00 
497.384  1.00000000e+00 
497.348  8.00000000e+00 
497.312  3.00000000e+00 
497.276  4.00000000e+00 
497.240  5.00000000e+00 
497.204  4.00000000e+00 
497.168  5.00000000e+00 
497.132  5.00000000e+00 
497.096  5.00000000e+00 
497.060  1.00000000e+00 
497.024  1.00000000e+00 
496.987  4.00000000e+00 
496.951  9.00000000e+00 
496.915  5.00000000e+00 
496.879  4.00000000e+00 
496.843  6.00000000e+00 
496.807  2.00000000e+00 
496.771  3.00000000e+00 
496.735  7.00000000e+00 
496.699  4.00000000e+00 
496.663  7.00000000e+00 
496.627  2.00000000e+00 
496.591  4.00000000e+00 
496.555  3.00000000e+00 
496.518  3.00000000e+00 
496.482  6.00000000e+00 
496.446  1.00000000e+01 
496.410  2.00000000e+00 
496.374  2.00000000e+00 
496.338  3.00000000e+00 
496.302  6.00000000e+00 
496.266  2.00000000e+00 
496.230  9.00000000e+00 
496.194  5.00000000e+00 
496.158  6.00000000e+00 
496.122  3.00000000e+00 
496.085  7.00000000e+00 
496.049  2.00000000e+00 
496.013  2.00000000e+00 
495.977  6.00000000e+00 
495.941  3.00000000e+00 
495.905  3.00000000e+00 
495.869  5.00000000e+00 
495.833  1.00000000e+00 
495.797  3.00000000e+00 
495.761  2.00000000e+00 
495.725  5.00000000e+00 
495.689  1.00000000e+00 
495.653  4.00000000e+00 
495.616  5.00000000e+00 
495.580  4.00000000e+00 
495.544  4.00000000e+00 
495.508  1.00000000e+00 
495.472  1.00000000e+00 
495.436  0.00000000e+00 
495.400  0.00000000e+00 

