[ Experiment Parameters ]
Experiment Description= Au4f,  mono=8.0, rod=-1.5, take-off= **40,30,...-40** 
Number_of_Regions_in_Experiment= 9 

Original_File_name= c:\alexesca\data\97071805.xps 
Instrument= ESCA-West
Date= 07-18-1997
Time=  15:09:21

[ Region 1 Parameters ]
Region_Description = au 4f dithered long                     
BEcenter(eV) = 85.500000
BEwidth(eV) = 10.000000
BEstep(eV) = 0.107813
Dwell_Time(sec) = 1.500000
N_o_scans = 3  
N_o_Channels = 92  
Excitation_Energy = -680564733843258578022841284181578743808.000000  
Scan_mode = 0  (DITHERED)

[ Region 2 Parameters ]
Region_Description = au 4f dithered long                     
BEcenter(eV) = 85.500000
BEwidth(eV) = 10.000000
BEstep(eV) = 0.107813
Dwell_Time(sec) = 1.500000
N_o_scans = 3  
N_o_Channels = 92  
Excitation_Energy = -680564733843258578022841284181578743808.000000  
Scan_mode = 0  (DITHERED)

[ Region 3 Parameters ]
Region_Description = au 4f dithered long                     
BEcenter(eV) = 85.500000
BEwidth(eV) = 10.000000
BEstep(eV) = 0.107813
Dwell_Time(sec) = 1.500000
N_o_scans = 3  
N_o_Channels = 92  
Excitation_Energy = -680564733843258578022841284181578743808.000000  
Scan_mode = 0  (DITHERED)

[ Region 4 Parameters ]
Region_Description = au 4f dithered long                     
BEcenter(eV) = 85.500000
BEwidth(eV) = 10.000000
BEstep(eV) = 0.107813
Dwell_Time(sec) = 1.500000
N_o_scans = 3  
N_o_Channels = 92  
Excitation_Energy = -680564733843258578022841284181578743808.000000  
Scan_mode = 0  (DITHERED)

[ Region 5 Parameters ]
Region_Description = au 4f dithered long                     
BEcenter(eV) = 85.500000
BEwidth(eV) = 10.000000
BEstep(eV) = 0.107813
Dwell_Time(sec) = 1.500000
N_o_scans = 3  
N_o_Channels = 92  
Excitation_Energy = -680564733843258578022841284181578743808.000000  
Scan_mode = 0  (DITHERED)

[ Region 6 Parameters ]
Region_Description = au 4f dithered long                     
BEcenter(eV) = 85.500000
BEwidth(eV) = 10.000000
BEstep(eV) = 0.107813
Dwell_Time(sec) = 1.500000
N_o_scans = 3  
N_o_Channels = 92  
Excitation_Energy = -680564733843258578022841284181578743808.000000  
Scan_mode = 0  (DITHERED)

[ Region 7 Parameters ]
Region_Description = au 4f dithered long                     
BEcenter(eV) = 85.500000
BEwidth(eV) = 10.000000
BEstep(eV) = 0.107813
Dwell_Time(sec) = 1.500000
N_o_scans = 3  
N_o_Channels = 92  
Excitation_Energy = -680564733843258578022841284181578743808.000000  
Scan_mode = 0  (DITHERED)

[ Region 8 Parameters ]
Region_Description = au 4f dithered long                     
BEcenter(eV) = 85.500000
BEwidth(eV) = 10.000000
BEstep(eV) = 0.107813
Dwell_Time(sec) = 1.500000
N_o_scans = 3  
N_o_Channels = 92  
Excitation_Energy = -680564733843258578022841284181578743808.000000  
Scan_mode = 0  (DITHERED)

[ Region 9 Parameters ]
Region_Description = au 4f dithered long                     
BEcenter(eV) = 85.500000
BEwidth(eV) = 10.000000
BEstep(eV) = 0.107813
Dwell_Time(sec) = 1.500000
N_o_scans = 3  
N_o_Channels = 92  
Excitation_Energy = -680564733843258578022841284181578743808.000000  
Scan_mode = 0  (DITHERED)

[ Region 1 Curve ]
BEcenter= 85.500  
BEwidth= -9.764  
Excitation= 1486.600
Time_p_channel= 3456.000
Size= 92
90.382   7.56800000e+03 
90.275   7.62900000e+03 
90.167   7.65800000e+03 
90.060   7.82600000e+03 
89.953   7.90200000e+03 
89.845   7.90300000e+03 
89.738   8.14100000e+03 
89.631   8.22200000e+03 
89.523   8.28400000e+03 
89.416   8.63700000e+03 
89.309   8.91300000e+03 
89.202   9.00300000e+03 
89.094   9.54300000e+03 
88.987   1.00630000e+04 
88.880   1.06410000e+04 
88.772   1.12950000e+04 
88.665   1.22830000e+04 
88.558   1.35140000e+04 
88.451   1.49740000e+04 
88.343   1.66050000e+04 
88.236   1.83660000e+04 
88.129   2.00690000e+04 
88.021   2.15300000e+04 
87.914   2.31320000e+04 
87.807   2.45920000e+04 
87.700   2.59650000e+04 
87.592   2.65560000e+04 
87.485   2.70670000e+04 
87.378   2.70210000e+04 
87.270   2.76170000e+04 
87.163   2.78860000e+04 
87.056   2.78580000e+04 
86.948   2.75890000e+04 
86.841   2.73240000e+04 
86.734   2.66800000e+04 
86.627   2.55070000e+04 
86.519   2.40180000e+04 
86.412   2.23600000e+04 
86.305   1.99840000e+04 
86.197   1.77080000e+04 
86.090   1.53150000e+04 
85.983   1.33990000e+04 
85.876   1.20970000e+04 
85.768   1.14420000e+04 
85.661   1.12190000e+04 
85.554   1.14140000e+04 
85.446   1.17300000e+04 
85.339   1.21640000e+04 
85.232   1.30500000e+04 
85.124   1.42520000e+04 
85.017   1.53220000e+04 
84.910   1.67340000e+04 
84.803   1.82850000e+04 
84.695   2.02300000e+04 
84.588   2.21440000e+04 
84.481   2.41060000e+04 
84.373   2.60650000e+04 
84.266   2.78740000e+04 
84.159   2.93800000e+04 
84.052   3.03540000e+04 
83.944   3.15130000e+04 
83.837   3.17060000e+04 
83.730   3.23480000e+04 
83.622   3.22180000e+04 
83.515   3.19490000e+04 
83.408   3.14010000e+04 
83.300   3.06500000e+04 
83.193   2.96760000e+04 
83.086   2.82900000e+04 
82.979   2.68720000e+04 
82.871   2.46500000e+04 
82.764   2.23640000e+04 
82.657   1.92460000e+04 
82.549   1.58820000e+04 
82.442   1.27220000e+04 
82.335   1.00300000e+04 
82.228   8.19100000e+03 
82.120   6.68900000e+03 
82.013   5.52700000e+03 
81.906   5.00100000e+03 
81.798   4.62800000e+03 
81.691   4.20400000e+03 
81.584   4.03800000e+03 
81.477   3.73500000e+03 
81.369   3.70700000e+03 
81.262   3.55200000e+03 
81.155   3.35500000e+03 
81.047   3.40700000e+03 
80.940   3.27000000e+03 
80.833   3.26300000e+03 
80.725   3.05900000e+03 
80.618   3.03000000e+03 
[ Region 2 Curve ]
BEcenter= 85.500  
BEwidth= -9.764  
Excitation= 1486.600
Time_p_channel= 3456.000
Size= 92
90.382   7.26500000e+03 
90.275   7.33900000e+03 
90.167   7.40000000e+03 
90.060   7.22900000e+03 
89.953   7.57800000e+03 
89.845   7.54100000e+03 
89.738   7.88400000e+03 
89.631   7.86900000e+03 
89.523   8.21600000e+03 
89.416   8.06800000e+03 
89.309   8.29500000e+03 
89.202   8.86200000e+03 
89.094   9.12700000e+03 
88.987   9.42600000e+03 
88.880   9.98300000e+03 
88.772   1.07240000e+04 
88.665   1.15100000e+04 
88.558   1.27780000e+04 
88.451   1.39130000e+04 
88.343   1.56230000e+04 
88.236   1.73020000e+04 
88.129   1.88370000e+04 
88.021   2.11250000e+04 
87.914   2.27780000e+04 
87.807   2.45330000e+04 
87.700   2.54240000e+04 
87.592   2.68440000e+04 
87.485   2.81640000e+04 
87.378   2.89830000e+04 
87.270   2.91970000e+04 
87.163   2.93000000e+04 
87.056   2.88590000e+04 
86.948   2.83060000e+04 
86.841   2.68800000e+04 
86.734   2.55750000e+04 
86.627   2.36720000e+04 
86.519   2.12160000e+04 
86.412   1.84750000e+04 
86.305   1.57660000e+04 
86.197   1.34960000e+04 
86.090   1.19790000e+04 
85.983   1.09240000e+04 
85.876   1.03430000e+04 
85.768   9.89400000e+03 
85.661   1.02500000e+04 
85.554   1.04050000e+04 
85.446   1.09340000e+04 
85.339   1.13870000e+04 
85.232   1.24110000e+04 
85.124   1.35600000e+04 
85.017   1.43360000e+04 
84.910   1.60380000e+04 
84.803   1.76110000e+04 
84.695   1.95280000e+04 
84.588   2.14740000e+04 
84.481   2.35170000e+04 
84.373   2.56570000e+04 
84.266   2.75250000e+04 
84.159   2.97040000e+04 
84.052   3.10910000e+04 
83.944   3.27030000e+04 
83.837   3.34460000e+04 
83.730   3.37250000e+04 
83.622   3.37250000e+04 
83.515   3.30720000e+04 
83.408   3.20530000e+04 
83.300   3.09250000e+04 
83.193   2.92440000e+04 
83.086   2.71080000e+04 
82.979   2.40780000e+04 
82.871   2.11830000e+04 
82.764   1.75370000e+04 
82.657   1.41370000e+04 
82.549   1.11060000e+04 
82.442   8.84500000e+03 
82.335   7.14300000e+03 
82.228   5.95000000e+03 
82.120   5.26800000e+03 
82.013   4.80500000e+03 
81.906   4.30100000e+03 
81.798   4.01100000e+03 
81.691   3.90600000e+03 
81.584   3.74100000e+03 
81.477   3.60300000e+03 
81.369   3.32900000e+03 
81.262   3.31700000e+03 
81.155   3.20800000e+03 
81.047   3.12800000e+03 
80.940   3.15400000e+03 
80.833   3.03000000e+03 
80.725   2.93400000e+03 
80.618   3.06600000e+03 
[ Region 3 Curve ]
BEcenter= 85.500  
BEwidth= -9.764  
Excitation= 1486.600
Time_p_channel= 3456.000
Size= 92
90.382   6.25400000e+03 
90.275   6.31900000e+03 
90.167   6.59800000e+03 
90.060   6.58200000e+03 
89.953   6.58500000e+03 
89.845   6.65400000e+03 
89.738   6.64900000e+03 
89.631   6.95300000e+03 
89.523   7.01000000e+03 
89.416   7.31600000e+03 
89.309   7.54500000e+03 
89.202   7.63000000e+03 
89.094   8.02400000e+03 
88.987   8.57800000e+03 
88.880   9.06700000e+03 
88.772   9.79500000e+03 
88.665   1.04310000e+04 
88.558   1.15380000e+04 
88.451   1.26700000e+04 
88.343   1.44610000e+04 
88.236   1.60600000e+04 
88.129   1.76550000e+04 
88.021   1.93890000e+04 
87.914   2.12710000e+04 
87.807   2.27620000e+04 
87.700   2.45780000e+04 
87.592   2.61500000e+04 
87.485   2.71240000e+04 
87.378   2.78290000e+04 
87.270   2.80690000e+04 
87.163   2.70460000e+04 
87.056   2.56750000e+04 
86.948   2.35240000e+04 
86.841   2.10880000e+04 
86.734   1.81120000e+04 
86.627   1.56270000e+04 
86.519   1.33850000e+04 
86.412   1.12290000e+04 
86.305   9.89400000e+03 
86.197   9.04200000e+03 
86.090   8.45200000e+03 
85.983   8.14800000e+03 
85.876   8.09200000e+03 
85.768   8.31200000e+03 
85.661   8.50900000e+03 
85.554   8.97800000e+03 
85.446   9.68600000e+03 
85.339   1.00370000e+04 
85.232   1.12860000e+04 
85.124   1.22640000e+04 
85.017   1.36760000e+04 
84.910   1.50240000e+04 
84.803   1.67990000e+04 
84.695   1.84670000e+04 
84.588   2.05900000e+04 
84.481   2.25520000e+04 
84.373   2.47040000e+04 
84.266   2.65120000e+04 
84.159   2.83010000e+04 
84.052   3.01970000e+04 
83.944   3.10760000e+04 
83.837   3.17790000e+04 
83.730   3.17260000e+04 
83.622   3.09350000e+04 
83.515   2.97440000e+04 
83.408   2.75070000e+04 
83.300   2.48120000e+04 
83.193   2.17100000e+04 
83.086   1.78750000e+04 
82.979   1.50350000e+04 
82.871   1.17460000e+04 
82.764   9.27900000e+03 
82.657   7.49500000e+03 
82.549   6.08300000e+03 
82.442   5.24200000e+03 
82.335   4.56100000e+03 
82.228   4.11700000e+03 
82.120   3.78600000e+03 
82.013   3.57200000e+03 
81.906   3.31700000e+03 
81.798   3.26500000e+03 
81.691   3.19700000e+03 
81.584   2.97200000e+03 
81.477   2.95800000e+03 
81.369   2.91100000e+03 
81.262   2.84800000e+03 
81.155   2.73900000e+03 
81.047   2.63400000e+03 
80.940   2.62200000e+03 
80.833   2.60000000e+03 
80.725   2.62200000e+03 
80.618   2.51000000e+03 
[ Region 4 Curve ]
BEcenter= 85.500  
BEwidth= -9.764  
Excitation= 1486.600
Time_p_channel= 3456.000
Size= 92
90.382   5.09800000e+03 
90.275   5.09800000e+03 
90.167   5.19000000e+03 
90.060   5.23000000e+03 
89.953   5.24900000e+03 
89.845   5.41300000e+03 
89.738   5.46100000e+03 
89.631   5.52500000e+03 
89.523   5.56600000e+03 
89.416   5.69100000e+03 
89.309   6.01000000e+03 
89.202   6.06600000e+03 
89.094   6.31300000e+03 
88.987   6.72700000e+03 
88.880   7.03300000e+03 
88.772   7.65600000e+03 
88.665   8.28700000e+03 
88.558   8.85500000e+03 
88.451   9.86300000e+03 
88.343   1.11700000e+04 
88.236   1.24460000e+04 
88.129   1.37010000e+04 
88.021   1.54950000e+04 
87.914   1.73540000e+04 
87.807   1.91610000e+04 
87.700   2.11570000e+04 
87.592   2.27770000e+04 
87.485   2.41500000e+04 
87.378   2.45270000e+04 
87.270   2.43270000e+04 
87.163   2.25890000e+04 
87.056   2.07100000e+04 
86.948   1.78630000e+04 
86.841   1.47290000e+04 
86.734   1.23880000e+04 
86.627   1.00830000e+04 
86.519   8.24400000e+03 
86.412   7.41000000e+03 
86.305   6.83800000e+03 
86.197   6.26100000e+03 
86.090   6.17200000e+03 
85.983   6.03500000e+03 
85.876   6.24800000e+03 
85.768   6.42300000e+03 
85.661   6.57900000e+03 
85.554   7.01200000e+03 
85.446   7.59100000e+03 
85.339   7.92300000e+03 
85.232   8.68200000e+03 
85.124   9.73400000e+03 
85.017   1.06180000e+04 
84.910   1.20370000e+04 
84.803   1.34190000e+04 
84.695   1.46790000e+04 
84.588   1.63750000e+04 
84.481   1.78900000e+04 
84.373   1.96580000e+04 
84.266   2.10630000e+04 
84.159   2.28800000e+04 
84.052   2.47350000e+04 
83.944   2.63210000e+04 
83.837   2.75220000e+04 
83.730   2.74870000e+04 
83.622   2.64040000e+04 
83.515   2.46890000e+04 
83.408   2.18790000e+04 
83.300   1.80930000e+04 
83.193   1.46350000e+04 
83.086   1.16370000e+04 
82.979   8.89200000e+03 
82.871   6.98700000e+03 
82.764   5.75600000e+03 
82.657   4.69500000e+03 
82.549   4.09700000e+03 
82.442   3.60400000e+03 
82.335   3.37300000e+03 
82.228   3.08300000e+03 
82.120   2.84000000e+03 
82.013   2.80300000e+03 
81.906   2.57000000e+03 
81.798   2.54900000e+03 
81.691   2.45900000e+03 
81.584   2.37000000e+03 
81.477   2.37900000e+03 
81.369   2.28700000e+03 
81.262   2.16500000e+03 
81.155   2.18700000e+03 
81.047   2.10400000e+03 
80.940   2.02500000e+03 
80.833   2.05500000e+03 
80.725   2.12800000e+03 
80.618   2.05800000e+03 
[ Region 5 Curve ]
BEcenter= 85.500  
BEwidth= -9.764  
Excitation= 1486.600
Time_p_channel= 3456.000
Size= 92
90.382   3.79900000e+03 
90.275   3.93800000e+03 
90.167   3.92700000e+03 
90.060   3.81100000e+03 
89.953   3.79200000e+03 
89.845   3.99600000e+03 
89.738   3.99200000e+03 
89.631   4.13800000e+03 
89.523   4.09100000e+03 
89.416   4.25200000e+03 
89.309   4.18300000e+03 
89.202   4.41400000e+03 
89.094   4.58300000e+03 
88.987   4.78300000e+03 
88.880   4.91300000e+03 
88.772   5.18900000e+03 
88.665   5.52100000e+03 
88.558   6.04600000e+03 
88.451   6.56000000e+03 
88.343   7.25200000e+03 
88.236   8.23600000e+03 
88.129   9.12600000e+03 
88.021   1.03170000e+04 
87.914   1.15720000e+04 
87.807   1.31480000e+04 
87.700   1.49820000e+04 
87.592   1.69780000e+04 
87.485   1.86820000e+04 
87.378   1.98850000e+04 
87.270   1.98400000e+04 
87.163   1.88610000e+04 
87.056   1.66660000e+04 
86.948   1.39120000e+04 
86.841   1.10600000e+04 
86.734   8.73400000e+03 
86.627   7.22800000e+03 
86.519   6.01000000e+03 
86.412   5.33700000e+03 
86.305   4.92900000e+03 
86.197   4.67600000e+03 
86.090   4.60000000e+03 
85.983   4.37800000e+03 
85.876   4.59600000e+03 
85.768   4.47800000e+03 
85.661   4.73700000e+03 
85.554   4.91600000e+03 
85.446   5.22100000e+03 
85.339   5.49800000e+03 
85.232   6.11200000e+03 
85.124   6.62200000e+03 
85.017   7.49100000e+03 
84.910   8.50000000e+03 
84.803   9.27500000e+03 
84.695   1.04800000e+04 
84.588   1.14330000e+04 
84.481   1.25140000e+04 
84.373   1.38840000e+04 
84.266   1.48570000e+04 
84.159   1.64720000e+04 
84.052   1.79720000e+04 
83.944   1.99860000e+04 
83.837   2.16850000e+04 
83.730   2.21060000e+04 
83.622   2.20770000e+04 
83.515   2.00180000e+04 
83.408   1.69640000e+04 
83.300   1.36950000e+04 
83.193   1.04070000e+04 
83.086   7.80900000e+03 
82.979   5.93200000e+03 
82.871   4.70700000e+03 
82.764   3.91400000e+03 
82.657   3.36800000e+03 
82.549   2.95900000e+03 
82.442   2.71200000e+03 
82.335   2.46800000e+03 
82.228   2.28100000e+03 
82.120   2.13500000e+03 
82.013   2.10400000e+03 
81.906   2.09400000e+03 
81.798   1.96800000e+03 
81.691   1.88400000e+03 
81.584   1.78400000e+03 
81.477   1.80200000e+03 
81.369   1.71200000e+03 
81.262   1.71700000e+03 
81.155   1.63700000e+03 
81.047   1.63800000e+03 
80.940   1.59000000e+03 
80.833   1.63200000e+03 
80.725   1.57100000e+03 
80.618   1.56900000e+03 
[ Region 6 Curve ]
BEcenter= 85.500  
BEwidth= -9.764  
Excitation= 1486.600
Time_p_channel= 3456.000
Size= 92
90.382   2.74700000e+03 
90.275   2.69400000e+03 
90.167   2.75400000e+03 
90.060   2.72300000e+03 
89.953   2.83500000e+03 
89.845   2.68700000e+03 
89.738   2.69100000e+03 
89.631   2.82400000e+03 
89.523   2.85900000e+03 
89.416   2.97500000e+03 
89.309   2.95200000e+03 
89.202   3.04500000e+03 
89.094   3.13900000e+03 
88.987   3.14800000e+03 
88.880   3.32700000e+03 
88.772   3.47600000e+03 
88.665   3.80200000e+03 
88.558   4.07000000e+03 
88.451   4.42700000e+03 
88.343   4.83200000e+03 
88.236   5.33800000e+03 
88.129   6.09800000e+03 
88.021   6.72800000e+03 
87.914   7.86600000e+03 
87.807   9.19900000e+03 
87.700   1.03350000e+04 
87.592   1.18800000e+04 
87.485   1.31840000e+04 
87.378   1.43830000e+04 
87.270   1.44870000e+04 
87.163   1.33580000e+04 
87.056   1.12040000e+04 
86.948   8.90100000e+03 
86.841   7.01500000e+03 
86.734   5.57700000e+03 
86.627   4.38400000e+03 
86.519   3.88900000e+03 
86.412   3.52200000e+03 
86.305   3.25900000e+03 
86.197   3.04000000e+03 
86.090   3.00200000e+03 
85.983   3.04400000e+03 
85.876   3.00300000e+03 
85.768   3.03900000e+03 
85.661   3.23500000e+03 
85.554   3.38400000e+03 
85.446   3.57700000e+03 
85.339   3.67200000e+03 
85.232   4.19800000e+03 
85.124   4.55600000e+03 
85.017   5.10700000e+03 
84.910   5.59600000e+03 
84.803   6.28300000e+03 
84.695   7.13400000e+03 
84.588   7.59900000e+03 
84.481   8.27300000e+03 
84.373   9.07600000e+03 
84.266   9.77000000e+03 
84.159   1.08840000e+04 
84.052   1.23470000e+04 
83.944   1.42700000e+04 
83.837   1.56710000e+04 
83.730   1.64280000e+04 
83.622   1.58470000e+04 
83.515   1.40200000e+04 
83.408   1.12760000e+04 
83.300   8.67300000e+03 
83.193   6.39000000e+03 
83.086   4.73700000e+03 
82.979   3.66800000e+03 
82.871   3.07400000e+03 
82.764   2.48700000e+03 
82.657   2.17100000e+03 
82.549   1.93400000e+03 
82.442   1.88300000e+03 
82.335   1.78800000e+03 
82.228   1.67300000e+03 
82.120   1.56000000e+03 
82.013   1.43100000e+03 
81.906   1.48000000e+03 
81.798   1.36100000e+03 
81.691   1.34400000e+03 
81.584   1.35700000e+03 
81.477   1.21200000e+03 
81.369   1.23500000e+03 
81.262   1.27400000e+03 
81.155   1.24700000e+03 
81.047   1.25300000e+03 
80.940   1.17700000e+03 
80.833   1.19200000e+03 
80.725   1.16000000e+03 
80.618   1.09800000e+03 
[ Region 7 Curve ]
BEcenter= 85.500  
BEwidth= -9.764  
Excitation= 1486.600
Time_p_channel= 3456.000
Size= 92
90.382   1.65400000e+03 
90.275   1.63700000e+03 
90.167   1.73800000e+03 
90.060   1.71300000e+03 
89.953   1.70200000e+03 
89.845   1.70800000e+03 
89.738   1.73600000e+03 
89.631   1.73600000e+03 
89.523   1.84500000e+03 
89.416   1.85100000e+03 
89.309   1.85000000e+03 
89.202   1.90800000e+03 
89.094   1.86000000e+03 
88.987   1.96200000e+03 
88.880   1.99000000e+03 
88.772   2.06500000e+03 
88.665   2.25500000e+03 
88.558   2.41100000e+03 
88.451   2.50700000e+03 
88.343   2.78400000e+03 
88.236   3.05900000e+03 
88.129   3.35700000e+03 
88.021   3.90200000e+03 
87.914   4.60000000e+03 
87.807   5.32000000e+03 
87.700   6.12400000e+03 
87.592   7.11500000e+03 
87.485   8.16300000e+03 
87.378   8.93500000e+03 
87.270   9.07900000e+03 
87.163   8.30800000e+03 
87.056   6.92900000e+03 
86.948   5.35700000e+03 
86.841   4.25400000e+03 
86.734   3.24000000e+03 
86.627   2.84200000e+03 
86.519   2.43500000e+03 
86.412   2.13500000e+03 
86.305   2.06300000e+03 
86.197   1.96100000e+03 
86.090   1.84300000e+03 
85.983   1.80700000e+03 
85.876   1.86700000e+03 
85.768   1.90000000e+03 
85.661   1.91300000e+03 
85.554   1.95800000e+03 
85.446   2.10100000e+03 
85.339   2.17300000e+03 
85.232   2.45000000e+03 
85.124   2.58600000e+03 
85.017   2.94300000e+03 
84.910   3.28900000e+03 
84.803   3.76000000e+03 
84.695   4.17500000e+03 
84.588   4.65500000e+03 
84.481   4.83000000e+03 
84.373   5.12300000e+03 
84.266   5.65200000e+03 
84.159   6.50600000e+03 
84.052   7.45900000e+03 
83.944   8.66700000e+03 
83.837   9.47400000e+03 
83.730   1.00610000e+04 
83.622   9.94800000e+03 
83.515   8.83600000e+03 
83.408   7.02600000e+03 
83.300   5.16300000e+03 
83.193   3.80100000e+03 
83.086   2.89600000e+03 
82.979   2.28800000e+03 
82.871   1.82300000e+03 
82.764   1.50500000e+03 
82.657   1.43000000e+03 
82.549   1.27400000e+03 
82.442   1.12500000e+03 
82.335   1.09300000e+03 
82.228   1.01100000e+03 
82.120   1.01100000e+03 
82.013   9.63000000e+02 
81.906   9.01000000e+02 
81.798   9.83000000e+02 
81.691   8.81000000e+02 
81.584   8.78000000e+02 
81.477   7.88000000e+02 
81.369   8.81000000e+02 
81.262   8.00000000e+02 
81.155   7.93000000e+02 
81.047   8.02000000e+02 
80.940   8.35000000e+02 
80.833   7.53000000e+02 
80.725   7.63000000e+02 
80.618   7.26000000e+02 
[ Region 8 Curve ]
BEcenter= 85.500  
BEwidth= -9.764  
Excitation= 1486.600
Time_p_channel= 3456.000
Size= 92
90.382   9.05000000e+02 
90.275   9.34000000e+02 
90.167   8.89000000e+02 
90.060   9.74000000e+02 
89.953   9.26000000e+02 
89.845   9.47000000e+02 
89.738   9.20000000e+02 
89.631   9.09000000e+02 
89.523   9.38000000e+02 
89.416   9.66000000e+02 
89.309   9.95000000e+02 
89.202   9.70000000e+02 
89.094   9.93000000e+02 
88.987   9.92000000e+02 
88.880   1.09800000e+03 
88.772   1.11900000e+03 
88.665   1.17300000e+03 
88.558   1.27200000e+03 
88.451   1.32400000e+03 
88.343   1.41200000e+03 
88.236   1.66000000e+03 
88.129   1.73300000e+03 
88.021   2.04300000e+03 
87.914   2.38500000e+03 
87.807   2.77400000e+03 
87.700   3.25100000e+03 
87.592   3.71200000e+03 
87.485   4.22400000e+03 
87.378   4.57000000e+03 
87.270   4.39000000e+03 
87.163   4.03400000e+03 
87.056   3.41200000e+03 
86.948   2.61500000e+03 
86.841   2.06800000e+03 
86.734   1.60400000e+03 
86.627   1.33200000e+03 
86.519   1.28700000e+03 
86.412   1.10700000e+03 
86.305   1.05900000e+03 
86.197   1.02200000e+03 
86.090   1.03200000e+03 
85.983   9.30000000e+02 
85.876   1.00100000e+03 
85.768   1.03000000e+03 
85.661   1.07200000e+03 
85.554   1.05100000e+03 
85.446   1.11500000e+03 
85.339   1.16300000e+03 
85.232   1.21500000e+03 
85.124   1.39900000e+03 
85.017   1.52100000e+03 
84.910   1.80900000e+03 
84.803   1.80900000e+03 
84.695   2.11400000e+03 
84.588   2.29000000e+03 
84.481   2.43800000e+03 
84.373   2.66900000e+03 
84.266   2.95900000e+03 
84.159   3.42200000e+03 
84.052   3.89800000e+03 
83.944   4.45100000e+03 
83.837   4.90300000e+03 
83.730   5.09100000e+03 
83.622   4.80200000e+03 
83.515   4.21200000e+03 
83.408   3.36300000e+03 
83.300   2.52700000e+03 
83.193   1.88800000e+03 
83.086   1.44700000e+03 
82.979   1.05200000e+03 
82.871   1.00200000e+03 
82.764   8.06000000e+02 
82.657   7.51000000e+02 
82.549   7.13000000e+02 
82.442   6.60000000e+02 
82.335   5.99000000e+02 
82.228   5.24000000e+02 
82.120   5.34000000e+02 
82.013   5.25000000e+02 
81.906   5.00000000e+02 
81.798   4.86000000e+02 
81.691   5.25000000e+02 
81.584   4.96000000e+02 
81.477   4.65000000e+02 
81.369   4.54000000e+02 
81.262   4.45000000e+02 
81.155   4.17000000e+02 
81.047   4.40000000e+02 
80.940   4.34000000e+02 
80.833   4.10000000e+02 
80.725   4.30000000e+02 
80.618   3.97000000e+02 
[ Region 9 Curve ]
BEcenter= 85.500  
BEwidth= -9.764  
Excitation= 1486.600
Time_p_channel= 3456.000
Size= 92
90.382   3.89000000e+02 
90.275   3.47000000e+02 
90.167   3.63000000e+02 
90.060   3.65000000e+02 
89.953   3.81000000e+02 
89.845   3.81000000e+02 
89.738   3.88000000e+02 
89.631   3.81000000e+02 
89.523   3.72000000e+02 
89.416   3.59000000e+02 
89.309   3.91000000e+02 
89.202   4.08000000e+02 
89.094   3.94000000e+02 
88.987   3.88000000e+02 
88.880   4.55000000e+02 
88.772   4.37000000e+02 
88.665   4.41000000e+02 
88.558   4.74000000e+02 
88.451   5.16000000e+02 
88.343   5.70000000e+02 
88.236   5.77000000e+02 
88.129   6.77000000e+02 
88.021   8.02000000e+02 
87.914   9.08000000e+02 
87.807   1.10900000e+03 
87.700   1.25600000e+03 
87.592   1.45200000e+03 
87.485   1.68500000e+03 
87.378   1.66200000e+03 
87.270   1.62600000e+03 
87.163   1.48500000e+03 
87.056   1.29200000e+03 
86.948   9.93000000e+02 
86.841   8.23000000e+02 
86.734   6.82000000e+02 
86.627   5.34000000e+02 
86.519   4.90000000e+02 
86.412   4.80000000e+02 
86.305   4.10000000e+02 
86.197   3.85000000e+02 
86.090   4.16000000e+02 
85.983   3.87000000e+02 
85.876   4.06000000e+02 
85.768   3.83000000e+02 
85.661   3.90000000e+02 
85.554   4.30000000e+02 
85.446   4.47000000e+02 
85.339   4.20000000e+02 
85.232   4.83000000e+02 
85.124   5.12000000e+02 
85.017   5.53000000e+02 
84.910   7.08000000e+02 
84.803   7.62000000e+02 
84.695   7.81000000e+02 
84.588   8.72000000e+02 
84.481   9.19000000e+02 
84.373   9.82000000e+02 
84.266   1.11300000e+03 
84.159   1.36100000e+03 
84.052   1.48300000e+03 
83.944   1.67000000e+03 
83.837   1.79800000e+03 
83.730   1.90000000e+03 
83.622   1.77700000e+03 
83.515   1.58600000e+03 
83.408   1.30800000e+03 
83.300   1.03600000e+03 
83.193   7.76000000e+02 
83.086   5.72000000e+02 
82.979   4.16000000e+02 
82.871   3.61000000e+02 
82.764   3.35000000e+02 
82.657   2.87000000e+02 
82.549   2.60000000e+02 
82.442   2.47000000e+02 
82.335   2.56000000e+02 
82.228   2.37000000e+02 
82.120   2.22000000e+02 
82.013   2.40000000e+02 
81.906   2.01000000e+02 
81.798   2.13000000e+02 
81.691   1.78000000e+02 
81.584   2.10000000e+02 
81.477   1.94000000e+02 
81.369   1.74000000e+02 
81.262   1.84000000e+02 
81.155   1.93000000e+02 
81.047   1.61000000e+02 
80.940   1.79000000e+02 
80.833   1.83000000e+02 
80.725   1.64000000e+02 
80.618   1.73000000e+02 
