[ Experiment Parameters ]
Experiment Description= <none> 
Number_of_Regions_in_Experiment= 2 

Original_File_name= c:\alexesca\data\97072904.xps 
Instrument= ESCA-West
Date= 07-29-1997
Time=  16:34:08

[ Region 1 Parameters ]
Region_Description = O for XPD                          
BEcenter(eV) = 532.000000
BEwidth(eV) = 10.000000
BEstep(eV) = 0.035938
Dwell_Time(sec) = 0.750000
N_o_scans = 1  
N_o_Channels = 278  
Excitation_Energy = 0.000000  
Scan_mode = 0  (DITHERED)

[ Region 2 Parameters ]
Region_Description = Mn for XPD                         
BEcenter(eV) = 643.000000
BEwidth(eV) = 15.000000
BEstep(eV) = 0.035938
Dwell_Time(sec) = 0.750000
N_o_scans = 1  
N_o_Channels = 417  
Excitation_Energy = 0.000000  
Scan_mode = 0  (DITHERED)

[ Region 1 Curve ]
BEcenter= 532.000 
BEwidth= -9.943  
Excitation= 1486.600
Time_p_channel= 192.000 
Size= 278
536.972  9.00000000e+01 
536.936  9.80000000e+01 
536.900  6.70000000e+01 
536.864  8.50000000e+01 
536.828  7.40000000e+01 
536.792  7.30000000e+01 
536.756  8.30000000e+01 
536.720  8.20000000e+01 
536.685  8.00000000e+01 
536.649  9.40000000e+01 
536.613  7.30000000e+01 
536.577  8.00000000e+01 
536.541  7.30000000e+01 
536.505  9.10000000e+01 
536.469  8.40000000e+01 
536.433  8.70000000e+01 
536.397  8.20000000e+01 
536.361  7.80000000e+01 
536.326  7.30000000e+01 
536.290  8.80000000e+01 
536.254  8.80000000e+01 
536.218  9.10000000e+01 
536.182  5.90000000e+01 
536.146  9.20000000e+01 
536.110  1.00000000e+02 
536.074  1.01000000e+02 
536.038  1.02000000e+02 
536.002  8.00000000e+01 
535.967  9.30000000e+01 
535.931  8.90000000e+01 
535.895  9.30000000e+01 
535.859  8.80000000e+01 
535.823  7.90000000e+01 
535.787  1.04000000e+02 
535.751  8.10000000e+01 
535.715  9.10000000e+01 
535.679  1.05000000e+02 
535.644  9.60000000e+01 
535.608  1.07000000e+02 
535.572  9.50000000e+01 
535.536  9.50000000e+01 
535.500  1.24000000e+02 
535.464  1.05000000e+02 
535.428  1.05000000e+02 
535.392  1.13000000e+02 
535.356  1.03000000e+02 
535.320  1.14000000e+02 
535.285  1.25000000e+02 
535.249  1.33000000e+02 
535.213  1.37000000e+02 
535.177  1.26000000e+02 
535.141  1.23000000e+02 
535.105  1.30000000e+02 
535.069  1.19000000e+02 
535.033  1.34000000e+02 
534.997  1.44000000e+02 
534.961  1.35000000e+02 
534.926  1.40000000e+02 
534.890  1.32000000e+02 
534.854  1.36000000e+02 
534.818  1.34000000e+02 
534.782  1.78000000e+02 
534.746  1.40000000e+02 
534.710  1.62000000e+02 
534.674  1.99000000e+02 
534.638  1.60000000e+02 
534.603  1.52000000e+02 
534.567  1.74000000e+02 
534.531  1.68000000e+02 
534.495  1.91000000e+02 
534.459  1.83000000e+02 
534.423  1.80000000e+02 
534.387  2.10000000e+02 
534.351  1.83000000e+02 
534.315  1.89000000e+02 
534.279  2.26000000e+02 
534.244  1.86000000e+02 
534.208  2.13000000e+02 
534.172  2.08000000e+02 
534.136  2.12000000e+02 
534.100  2.45000000e+02 
534.064  2.39000000e+02 
534.028  2.56000000e+02 
533.992  2.35000000e+02 
533.956  2.62000000e+02 
533.920  2.48000000e+02 
533.885  2.81000000e+02 
533.849  2.46000000e+02 
533.813  2.78000000e+02 
533.777  2.43000000e+02 
533.741  2.77000000e+02 
533.705  3.01000000e+02 
533.669  2.71000000e+02 
533.633  2.97000000e+02 
533.597  2.68000000e+02 
533.562  3.28000000e+02 
533.526  3.00000000e+02 
533.490  3.21000000e+02 
533.454  3.50000000e+02 
533.418  3.16000000e+02 
533.382  3.56000000e+02 
533.346  3.37000000e+02 
533.310  3.28000000e+02 
533.274  3.72000000e+02 
533.238  3.65000000e+02 
533.203  3.77000000e+02 
533.167  3.56000000e+02 
533.131  3.35000000e+02 
533.095  3.61000000e+02 
533.059  3.86000000e+02 
533.023  3.77000000e+02 
532.987  3.45000000e+02 
532.951  3.28000000e+02 
532.915  3.71000000e+02 
532.879  3.60000000e+02 
532.844  3.38000000e+02 
532.808  3.51000000e+02 
532.772  3.65000000e+02 
532.736  3.37000000e+02 
532.700  3.34000000e+02 
532.664  3.20000000e+02 
532.628  3.23000000e+02 
532.592  3.29000000e+02 
532.556  3.38000000e+02 
532.521  2.90000000e+02 
532.485  2.99000000e+02 
532.449  2.79000000e+02 
532.413  3.41000000e+02 
532.377  2.92000000e+02 
532.341  2.54000000e+02 
532.305  2.48000000e+02 
532.269  2.44000000e+02 
532.233  2.20000000e+02 
532.197  2.31000000e+02 
532.162  2.37000000e+02 
532.126  2.45000000e+02 
532.090  2.12000000e+02 
532.054  1.91000000e+02 
532.018  1.98000000e+02 
531.982  2.08000000e+02 
531.946  1.98000000e+02 
531.910  1.77000000e+02 
531.874  1.75000000e+02 
531.838  1.78000000e+02 
531.803  1.70000000e+02 
531.767  1.57000000e+02 
531.731  1.80000000e+02 
531.695  1.64000000e+02 
531.659  1.44000000e+02 
531.623  1.36000000e+02 
531.587  1.53000000e+02 
531.551  1.31000000e+02 
531.515  1.29000000e+02 
531.479  1.44000000e+02 
531.444  1.40000000e+02 
531.408  1.40000000e+02 
531.372  1.14000000e+02 
531.336  1.21000000e+02 
531.300  1.08000000e+02 
531.264  1.21000000e+02 
531.228  1.16000000e+02 
531.192  1.19000000e+02 
531.156  1.17000000e+02 
531.121  1.20000000e+02 
531.085  1.22000000e+02 
531.049  1.42000000e+02 
531.013  1.09000000e+02 
530.977  1.07000000e+02 
530.941  9.70000000e+01 
530.905  8.70000000e+01 
530.869  1.04000000e+02 
530.833  8.80000000e+01 
530.797  1.13000000e+02 
530.762  1.11000000e+02 
530.726  1.05000000e+02 
530.690  1.02000000e+02 
530.654  8.50000000e+01 
530.618  9.70000000e+01 
530.582  9.70000000e+01 
530.546  1.03000000e+02 
530.510  1.13000000e+02 
530.474  8.20000000e+01 
530.438  1.00000000e+02 
530.403  1.01000000e+02 
530.367  8.20000000e+01 
530.331  9.40000000e+01 
530.295  7.60000000e+01 
530.259  7.70000000e+01 
530.223  7.60000000e+01 
530.187  9.20000000e+01 
530.151  9.10000000e+01 
530.115  8.80000000e+01 
530.080  8.00000000e+01 
530.044  1.00000000e+02 
530.008  8.30000000e+01 
529.972  7.40000000e+01 
529.936  9.70000000e+01 
529.900  7.40000000e+01 
529.864  8.70000000e+01 
529.828  6.90000000e+01 
529.792  8.10000000e+01 
529.756  6.90000000e+01 
529.721  1.00000000e+02 
529.685  7.50000000e+01 
529.649  6.10000000e+01 
529.613  7.70000000e+01 
529.577  7.30000000e+01 
529.541  6.90000000e+01 
529.505  8.70000000e+01 
529.469  6.50000000e+01 
529.433  9.30000000e+01 
529.397  7.60000000e+01 
529.362  7.80000000e+01 
529.326  7.80000000e+01 
529.290  7.30000000e+01 
529.254  7.70000000e+01 
529.218  6.40000000e+01 
529.182  7.60000000e+01 
529.146  8.80000000e+01 
529.110  7.70000000e+01 
529.074  7.70000000e+01 
529.039  8.30000000e+01 
529.003  7.00000000e+01 
528.967  6.00000000e+01 
528.931  7.00000000e+01 
528.895  7.50000000e+01 
528.859  9.00000000e+01 
528.823  5.80000000e+01 
528.787  7.40000000e+01 
528.751  7.30000000e+01 
528.715  7.20000000e+01 
528.680  7.70000000e+01 
528.644  7.10000000e+01 
528.608  7.10000000e+01 
528.572  7.20000000e+01 
528.536  7.40000000e+01 
528.500  6.70000000e+01 
528.464  8.30000000e+01 
528.428  7.70000000e+01 
528.392  6.20000000e+01 
528.356  6.00000000e+01 
528.321  6.30000000e+01 
528.285  6.10000000e+01 
528.249  7.50000000e+01 
528.213  9.00000000e+01 
528.177  7.20000000e+01 
528.141  6.80000000e+01 
528.105  7.00000000e+01 
528.069  7.10000000e+01 
528.033  8.00000000e+01 
527.998  7.50000000e+01 
527.962  6.80000000e+01 
527.926  8.10000000e+01 
527.890  6.30000000e+01 
527.854  6.20000000e+01 
527.818  5.90000000e+01 
527.782  9.40000000e+01 
527.746  7.30000000e+01 
527.710  8.40000000e+01 
527.674  6.70000000e+01 
527.639  6.40000000e+01 
527.603  7.60000000e+01 
527.567  6.80000000e+01 
527.531  8.30000000e+01 
527.495  7.00000000e+01 
527.459  9.60000000e+01 
527.423  8.30000000e+01 
527.387  7.10000000e+01 
527.351  7.90000000e+01 
527.315  7.20000000e+01 
527.280  7.90000000e+01 
527.244  8.30000000e+01 
527.208  6.50000000e+01 
527.172  7.50000000e+01 
527.136  7.40000000e+01 
527.100  6.40000000e+01 
527.064  8.90000000e+01 
527.028  6.60000000e+01 
[ Region 2 Curve ]
BEcenter= 643.000 
BEwidth= -14.938 
Excitation= 1486.600
Time_p_channel= 192.000 
Size= 417
650.469  1.58000000e+02 
650.433  1.21000000e+02 
650.397  1.30000000e+02 
650.361  1.18000000e+02 
650.325  1.40000000e+02 
650.289  1.09000000e+02 
650.253  1.26000000e+02 
650.217  1.59000000e+02 
650.181  1.05000000e+02 
650.146  1.20000000e+02 
650.110  1.41000000e+02 
650.074  1.41000000e+02 
650.038  1.18000000e+02 
650.002  1.48000000e+02 
649.966  1.48000000e+02 
649.930  1.56000000e+02 
649.894  1.73000000e+02 
649.858  1.52000000e+02 
649.822  2.10000000e+02 
649.787  2.05000000e+02 
649.751  2.53000000e+02 
649.715  2.67000000e+02 
649.679  3.12000000e+02 
649.643  3.01000000e+02 
649.607  2.77000000e+02 
649.571  2.31000000e+02 
649.535  2.03000000e+02 
649.499  1.66000000e+02 
649.463  1.53000000e+02 
649.427  1.52000000e+02 
649.392  1.27000000e+02 
649.356  1.49000000e+02 
649.320  1.44000000e+02 
649.284  1.44000000e+02 
649.248  1.37000000e+02 
649.212  1.58000000e+02 
649.176  1.28000000e+02 
649.140  1.33000000e+02 
649.104  1.21000000e+02 
649.068  1.39000000e+02 
649.032  1.41000000e+02 
648.997  1.28000000e+02 
648.961  1.13000000e+02 
648.925  1.41000000e+02 
648.889  1.18000000e+02 
648.853  1.29000000e+02 
648.817  1.46000000e+02 
648.781  1.32000000e+02 
648.745  1.27000000e+02 
648.709  1.30000000e+02 
648.673  1.25000000e+02 
648.637  1.42000000e+02 
648.602  1.36000000e+02 
648.566  1.38000000e+02 
648.530  1.30000000e+02 
648.494  1.45000000e+02 
648.458  1.29000000e+02 
648.422  1.38000000e+02 
648.386  1.34000000e+02 
648.350  1.18000000e+02 
648.314  1.30000000e+02 
648.278  1.44000000e+02 
648.242  1.24000000e+02 
648.207  1.40000000e+02 
648.171  1.58000000e+02 
648.135  1.15000000e+02 
648.099  1.31000000e+02 
648.063  1.09000000e+02 
648.027  1.31000000e+02 
647.991  1.26000000e+02 
647.955  1.47000000e+02 
647.919  1.33000000e+02 
647.883  1.09000000e+02 
647.848  1.20000000e+02 
647.812  1.43000000e+02 
647.776  1.40000000e+02 
647.740  1.32000000e+02 
647.704  1.24000000e+02 
647.668  1.37000000e+02 
647.632  1.54000000e+02 
647.596  1.21000000e+02 
647.560  1.35000000e+02 
647.524  1.42000000e+02 
647.488  1.37000000e+02 
647.453  1.26000000e+02 
647.417  1.43000000e+02 
647.381  1.35000000e+02 
647.345  1.30000000e+02 
647.309  1.26000000e+02 
647.273  1.48000000e+02 
647.237  1.47000000e+02 
647.201  1.43000000e+02 
647.165  1.35000000e+02 
647.129  1.16000000e+02 
647.093  1.38000000e+02 
647.058  1.31000000e+02 
647.022  1.34000000e+02 
646.986  1.06000000e+02 
646.950  1.20000000e+02 
646.914  1.13000000e+02 
646.878  1.20000000e+02 
646.842  1.38000000e+02 
646.806  1.43000000e+02 
646.770  1.24000000e+02 
646.734  1.46000000e+02 
646.698  1.15000000e+02 
646.663  1.26000000e+02 
646.627  1.30000000e+02 
646.591  1.42000000e+02 
646.555  1.33000000e+02 
646.519  1.46000000e+02 
646.483  1.60000000e+02 
646.447  1.57000000e+02 
646.411  1.28000000e+02 
646.375  1.47000000e+02 
646.339  1.30000000e+02 
646.303  1.11000000e+02 
646.268  1.24000000e+02 
646.232  1.50000000e+02 
646.196  1.42000000e+02 
646.160  1.37000000e+02 
646.124  1.34000000e+02 
646.088  1.62000000e+02 
646.052  1.30000000e+02 
646.016  1.37000000e+02 
645.980  1.48000000e+02 
645.944  1.49000000e+02 
645.909  1.26000000e+02 
645.873  1.54000000e+02 
645.837  1.28000000e+02 
645.801  1.32000000e+02 
645.765  1.19000000e+02 
645.729  1.32000000e+02 
645.693  1.37000000e+02 
645.657  1.39000000e+02 
645.621  1.25000000e+02 
645.585  1.43000000e+02 
645.549  1.42000000e+02 
645.514  1.58000000e+02 
645.478  1.29000000e+02 
645.442  1.36000000e+02 
645.406  1.46000000e+02 
645.370  1.13000000e+02 
645.334  1.40000000e+02 
645.298  1.38000000e+02 
645.262  1.48000000e+02 
645.226  1.29000000e+02 
645.190  1.29000000e+02 
645.154  1.40000000e+02 
645.119  1.13000000e+02 
645.083  1.38000000e+02 
645.047  1.28000000e+02 
645.011  1.34000000e+02 
644.975  1.38000000e+02 
644.939  1.19000000e+02 
644.903  1.40000000e+02 
644.867  1.28000000e+02 
644.831  1.47000000e+02 
644.795  1.51000000e+02 
644.759  1.30000000e+02 
644.724  1.16000000e+02 
644.688  1.59000000e+02 
644.652  1.33000000e+02 
644.616  1.37000000e+02 
644.580  1.57000000e+02 
644.544  1.37000000e+02 
644.508  1.36000000e+02 
644.472  1.36000000e+02 
644.436  1.36000000e+02 
644.400  1.35000000e+02 
644.364  1.23000000e+02 
644.329  1.54000000e+02 
644.293  1.57000000e+02 
644.257  1.30000000e+02 
644.221  1.59000000e+02 
644.185  1.38000000e+02 
644.149  1.39000000e+02 
644.113  1.39000000e+02 
644.077  1.31000000e+02 
644.041  1.52000000e+02 
644.005  1.60000000e+02 
643.970  1.25000000e+02 
643.934  1.60000000e+02 
643.898  1.44000000e+02 
643.862  1.24000000e+02 
643.826  1.40000000e+02 
643.790  1.45000000e+02 
643.754  1.46000000e+02 
643.718  1.34000000e+02 
643.682  1.67000000e+02 
643.646  1.35000000e+02 
643.610  1.51000000e+02 
643.575  1.33000000e+02 
643.539  1.49000000e+02 
643.503  1.36000000e+02 
643.467  1.42000000e+02 
643.431  1.29000000e+02 
643.395  1.61000000e+02 
643.359  1.45000000e+02 
643.323  1.21000000e+02 
643.287  1.62000000e+02 
643.251  1.33000000e+02 
643.215  1.26000000e+02 
643.180  1.38000000e+02 
643.144  1.49000000e+02 
643.108  1.35000000e+02 
643.072  1.35000000e+02 
643.036  1.25000000e+02 
643.000  1.40000000e+02 
642.964  1.49000000e+02 
642.928  1.51000000e+02 
642.892  1.36000000e+02 
642.856  1.33000000e+02 
642.820  1.44000000e+02 
642.785  1.49000000e+02 
642.749  1.56000000e+02 
642.713  1.56000000e+02 
642.677  1.39000000e+02 
642.641  1.36000000e+02 
642.605  1.25000000e+02 
642.569  1.61000000e+02 
642.533  1.63000000e+02 
642.497  1.65000000e+02 
642.461  1.43000000e+02 
642.425  1.50000000e+02 
642.390  1.39000000e+02 
642.354  1.64000000e+02 
642.318  1.43000000e+02 
642.282  1.37000000e+02 
642.246  1.54000000e+02 
642.210  1.48000000e+02 
642.174  1.44000000e+02 
642.138  1.33000000e+02 
642.102  1.28000000e+02 
642.066  1.40000000e+02 
642.030  1.57000000e+02 
641.995  1.24000000e+02 
641.959  1.61000000e+02 
641.923  1.39000000e+02 
641.887  1.48000000e+02 
641.851  1.44000000e+02 
641.815  1.75000000e+02 
641.779  1.33000000e+02 
641.743  1.22000000e+02 
641.707  1.38000000e+02 
641.671  1.34000000e+02 
641.636  1.30000000e+02 
641.600  1.39000000e+02 
641.564  1.48000000e+02 
641.528  1.43000000e+02 
641.492  1.57000000e+02 
641.456  1.47000000e+02 
641.420  1.35000000e+02 
641.384  1.40000000e+02 
641.348  1.54000000e+02 
641.312  1.40000000e+02 
641.276  1.40000000e+02 
641.241  1.36000000e+02 
641.205  1.50000000e+02 
641.169  1.32000000e+02 
641.133  1.29000000e+02 
641.097  1.32000000e+02 
641.061  1.40000000e+02 
641.025  1.42000000e+02 
640.989  1.55000000e+02 
640.953  1.19000000e+02 
640.917  1.49000000e+02 
640.881  1.40000000e+02 
640.846  1.30000000e+02 
640.810  1.55000000e+02 
640.774  1.26000000e+02 
640.738  1.23000000e+02 
640.702  1.36000000e+02 
640.666  1.09000000e+02 
640.630  1.46000000e+02 
640.594  1.45000000e+02 
640.558  1.36000000e+02 
640.522  1.39000000e+02 
640.486  1.32000000e+02 
640.451  1.35000000e+02 
640.415  1.35000000e+02 
640.379  1.35000000e+02 
640.343  1.19000000e+02 
640.307  1.45000000e+02 
640.271  1.24000000e+02 
640.235  1.23000000e+02 
640.199  1.28000000e+02 
640.163  1.14000000e+02 
640.127  1.15000000e+02 
640.091  1.63000000e+02 
640.056  1.32000000e+02 
640.020  1.33000000e+02 
639.984  1.25000000e+02 
639.948  1.37000000e+02 
639.912  1.40000000e+02 
639.876  1.25000000e+02 
639.840  1.24000000e+02 
639.804  1.25000000e+02 
639.768  1.32000000e+02 
639.732  1.31000000e+02 
639.697  1.46000000e+02 
639.661  1.38000000e+02 
639.625  1.22000000e+02 
639.589  1.25000000e+02 
639.553  1.48000000e+02 
639.517  1.43000000e+02 
639.481  1.35000000e+02 
639.445  1.43000000e+02 
639.409  1.18000000e+02 
639.373  1.24000000e+02 
639.337  1.32000000e+02 
639.302  1.47000000e+02 
639.266  1.28000000e+02 
639.230  1.19000000e+02 
639.194  1.48000000e+02 
639.158  1.29000000e+02 
639.122  1.42000000e+02 
639.086  1.30000000e+02 
639.050  1.29000000e+02 
639.014  1.15000000e+02 
638.978  1.22000000e+02 
638.942  1.23000000e+02 
638.907  1.24000000e+02 
638.871  1.53000000e+02 
638.835  1.40000000e+02 
638.799  1.30000000e+02 
638.763  1.41000000e+02 
638.727  1.39000000e+02 
638.691  1.49000000e+02 
638.655  1.38000000e+02 
638.619  1.29000000e+02 
638.583  1.27000000e+02 
638.547  1.37000000e+02 
638.512  1.32000000e+02 
638.476  1.39000000e+02 
638.440  1.30000000e+02 
638.404  1.12000000e+02 
638.368  1.47000000e+02 
638.332  1.08000000e+02 
638.296  1.27000000e+02 
638.260  1.31000000e+02 
638.224  1.35000000e+02 
638.188  1.26000000e+02 
638.152  1.19000000e+02 
638.117  1.33000000e+02 
638.081  1.40000000e+02 
638.045  1.14000000e+02 
638.009  1.26000000e+02 
637.973  1.10000000e+02 
637.937  1.36000000e+02 
637.901  1.24000000e+02 
637.865  1.28000000e+02 
637.829  1.35000000e+02 
637.793  1.22000000e+02 
637.758  1.31000000e+02 
637.722  1.15000000e+02 
637.686  1.38000000e+02 
637.650  1.54000000e+02 
637.614  1.15000000e+02 
637.578  1.12000000e+02 
637.542  1.24000000e+02 
637.506  1.24000000e+02 
637.470  1.28000000e+02 
637.434  1.28000000e+02 
637.398  1.54000000e+02 
637.363  1.38000000e+02 
637.327  1.31000000e+02 
637.291  1.25000000e+02 
637.255  1.23000000e+02 
637.219  1.26000000e+02 
637.183  1.49000000e+02 
637.147  1.23000000e+02 
637.111  1.18000000e+02 
637.075  1.20000000e+02 
637.039  1.29000000e+02 
637.003  1.24000000e+02 
636.968  1.26000000e+02 
636.932  1.22000000e+02 
636.896  1.38000000e+02 
636.860  1.41000000e+02 
636.824  1.29000000e+02 
636.788  1.49000000e+02 
636.752  1.36000000e+02 
636.716  1.51000000e+02 
636.680  1.37000000e+02 
636.644  1.31000000e+02 
636.608  1.51000000e+02 
636.573  1.79000000e+02 
636.537  1.39000000e+02 
636.501  1.23000000e+02 
636.465  1.06000000e+02 
636.429  1.43000000e+02 
636.393  1.21000000e+02 
636.357  1.29000000e+02 
636.321  1.30000000e+02 
636.285  1.18000000e+02 
636.249  1.13000000e+02 
636.213  1.11000000e+02 
636.178  1.35000000e+02 
636.142  1.37000000e+02 
636.106  1.35000000e+02 
636.070  1.33000000e+02 
636.034  1.12000000e+02 
635.998  1.25000000e+02 
635.962  1.38000000e+02 
635.926  1.12000000e+02 
635.890  1.12000000e+02 
635.854  1.44000000e+02 
635.819  1.21000000e+02 
635.783  1.40000000e+02 
635.747  1.19000000e+02 
635.711  9.70000000e+01 
635.675  1.41000000e+02 
635.639  1.20000000e+02 
635.603  1.43000000e+02 
635.567  1.30000000e+02 
635.531  1.35000000e+02 
