[ Experiment Parameters ]
Experiment Description= C1s  mono = 7.25 +-0.1, take-off = -40,-30...40 
Number_of_Regions_in_Experiment= 9 

Original_File_name= c:\alexesca\data\97071015.xps 
Instrument= ESCA-West
Date= 07-10-1997
Time=  12:11:43

[ Region 1 Parameters ]
Region_Description = C 1s    dithered                           
BEcenter(eV) = 284.000000
BEwidth(eV) = 10.000000
BEstep(eV) = 0.071875
Dwell_Time(sec) = 1.000000
N_o_scans = 1  
N_o_Channels = 139  
Excitation_Energy = 0.000000  
Scan_mode = 0  (DITHERED)

[ Region 2 Parameters ]
Region_Description = C 1s    dithered                           
BEcenter(eV) = 284.000000
BEwidth(eV) = 10.000000
BEstep(eV) = 0.071875
Dwell_Time(sec) = 1.000000
N_o_scans = 1  
N_o_Channels = 139  
Excitation_Energy = 0.000000  
Scan_mode = 0  (DITHERED)

[ Region 3 Parameters ]
Region_Description = C 1s    dithered                           
BEcenter(eV) = 284.000000
BEwidth(eV) = 10.000000
BEstep(eV) = 0.071875
Dwell_Time(sec) = 1.000000
N_o_scans = 1  
N_o_Channels = 139  
Excitation_Energy = 0.000000  
Scan_mode = 0  (DITHERED)

[ Region 4 Parameters ]
Region_Description = C 1s    dithered                           
BEcenter(eV) = 284.000000
BEwidth(eV) = 10.000000
BEstep(eV) = 0.071875
Dwell_Time(sec) = 1.000000
N_o_scans = 1  
N_o_Channels = 139  
Excitation_Energy = 0.000000  
Scan_mode = 0  (DITHERED)

[ Region 5 Parameters ]
Region_Description = C 1s    dithered                           
BEcenter(eV) = 284.000000
BEwidth(eV) = 10.000000
BEstep(eV) = 0.071875
Dwell_Time(sec) = 1.000000
N_o_scans = 1  
N_o_Channels = 139  
Excitation_Energy = 0.000000  
Scan_mode = 0  (DITHERED)

[ Region 6 Parameters ]
Region_Description = C 1s    dithered                           
BEcenter(eV) = 284.000000
BEwidth(eV) = 10.000000
BEstep(eV) = 0.071875
Dwell_Time(sec) = 1.000000
N_o_scans = 1  
N_o_Channels = 139  
Excitation_Energy = 0.000000  
Scan_mode = 0  (DITHERED)

[ Region 7 Parameters ]
Region_Description = C 1s    dithered                           
BEcenter(eV) = 284.000000
BEwidth(eV) = 10.000000
BEstep(eV) = 0.071875
Dwell_Time(sec) = 1.000000
N_o_scans = 1  
N_o_Channels = 139  
Excitation_Energy = 0.000000  
Scan_mode = 0  (DITHERED)

[ Region 8 Parameters ]
Region_Description = C 1s    dithered                           
BEcenter(eV) = 284.000000
BEwidth(eV) = 10.000000
BEstep(eV) = 0.071875
Dwell_Time(sec) = 1.000000
N_o_scans = 1  
N_o_Channels = 139  
Excitation_Energy = 0.000000  
Scan_mode = 0  (DITHERED)

[ Region 9 Parameters ]
Region_Description = C 1s    dithered                           
BEcenter(eV) = 284.000000
BEwidth(eV) = 10.000000
BEstep(eV) = 0.071875
Dwell_Time(sec) = 1.000000
N_o_scans = 1  
N_o_Channels = 139  
Excitation_Energy = 0.000000  
Scan_mode = 0  (DITHERED)

[ Region 1 Curve ]
BEcenter= 284.000 
BEwidth= -9.898  
Excitation= 1486.600
Time_p_channel= 512.000 
Size= 139
288.949  4.25000000e+02 
288.877  4.35000000e+02 
288.806  4.18000000e+02 
288.734  4.11000000e+02 
288.662  4.34000000e+02 
288.591  3.84000000e+02 
288.519  4.09000000e+02 
288.447  4.18000000e+02 
288.375  3.87000000e+02 
288.304  3.85000000e+02 
288.232  3.54000000e+02 
288.160  4.47000000e+02 
288.088  4.16000000e+02 
288.017  3.92000000e+02 
287.945  4.29000000e+02 
287.873  4.30000000e+02 
287.802  4.29000000e+02 
287.730  3.94000000e+02 
287.658  4.41000000e+02 
287.586  4.77000000e+02 
287.515  4.59000000e+02 
287.443  4.57000000e+02 
287.371  5.14000000e+02 
287.299  4.83000000e+02 
287.228  4.56000000e+02 
287.156  4.65000000e+02 
287.084  5.04000000e+02 
287.013  5.20000000e+02 
286.941  5.34000000e+02 
286.869  5.55000000e+02 
286.797  5.72000000e+02 
286.726  5.51000000e+02 
286.654  5.36000000e+02 
286.582  6.29000000e+02 
286.510  5.89000000e+02 
286.439  6.52000000e+02 
286.367  6.18000000e+02 
286.295  5.57000000e+02 
286.224  6.47000000e+02 
286.152  6.51000000e+02 
286.080  7.39000000e+02 
286.008  6.96000000e+02 
285.937  7.17000000e+02 
285.865  8.25000000e+02 
285.793  7.52000000e+02 
285.721  7.56000000e+02 
285.650  8.33000000e+02 
285.578  8.38000000e+02 
285.506  8.30000000e+02 
285.435  8.80000000e+02 
285.363  9.23000000e+02 
285.291  8.58000000e+02 
285.219  8.95000000e+02 
285.148  8.89000000e+02 
285.076  8.67000000e+02 
285.004  8.30000000e+02 
284.932  8.86000000e+02 
284.861  8.20000000e+02 
284.789  8.03000000e+02 
284.717  7.88000000e+02 
284.646  7.68000000e+02 
284.574  7.57000000e+02 
284.502  6.74000000e+02 
284.430  6.69000000e+02 
284.359  6.68000000e+02 
284.287  6.08000000e+02 
284.215  5.76000000e+02 
284.143  5.35000000e+02 
284.072  5.53000000e+02 
284.000  4.62000000e+02 
283.928  4.50000000e+02 
283.857  4.31000000e+02 
283.785  3.81000000e+02 
283.713  4.06000000e+02 
283.641  4.20000000e+02 
283.570  4.01000000e+02 
283.498  3.94000000e+02 
283.426  3.79000000e+02 
283.354  3.91000000e+02 
283.283  3.91000000e+02 
283.211  3.90000000e+02 
283.139  4.04000000e+02 
283.068  3.81000000e+02 
282.996  3.83000000e+02 
282.924  3.72000000e+02 
282.852  3.67000000e+02 
282.781  3.85000000e+02 
282.709  3.61000000e+02 
282.637  3.74000000e+02 
282.565  3.95000000e+02 
282.494  3.60000000e+02 
282.422  3.95000000e+02 
282.350  3.82000000e+02 
282.279  3.80000000e+02 
282.207  3.82000000e+02 
282.135  3.49000000e+02 
282.063  3.81000000e+02 
281.992  3.74000000e+02 
281.920  3.68000000e+02 
281.848  3.86000000e+02 
281.776  3.77000000e+02 
281.705  3.46000000e+02 
281.633  3.55000000e+02 
281.561  3.84000000e+02 
281.490  3.55000000e+02 
281.418  3.71000000e+02 
281.346  3.79000000e+02 
281.274  3.85000000e+02 
281.203  3.71000000e+02 
281.131  3.91000000e+02 
281.059  3.83000000e+02 
280.987  3.42000000e+02 
280.916  3.44000000e+02 
280.844  4.09000000e+02 
280.772  3.73000000e+02 
280.701  3.61000000e+02 
280.629  3.72000000e+02 
280.557  3.51000000e+02 
280.485  3.61000000e+02 
280.414  3.38000000e+02 
280.342  3.78000000e+02 
280.270  3.64000000e+02 
280.198  3.51000000e+02 
280.127  3.76000000e+02 
280.055  3.73000000e+02 
279.983  3.77000000e+02 
279.912  3.53000000e+02 
279.840  3.47000000e+02 
279.768  3.47000000e+02 
279.696  3.62000000e+02 
279.625  3.71000000e+02 
279.553  3.49000000e+02 
279.481  3.52000000e+02 
279.409  3.91000000e+02 
279.338  3.71000000e+02 
279.266  3.42000000e+02 
279.194  3.57000000e+02 
279.123  3.47000000e+02 
279.051  3.46000000e+02 
[ Region 2 Curve ]
BEcenter= 284.000 
BEwidth= -9.898  
Excitation= 1486.600
Time_p_channel= 512.000 
Size= 139
288.949  7.59000000e+02 
288.877  7.04000000e+02 
288.806  7.23000000e+02 
288.734  7.16000000e+02 
288.662  7.94000000e+02 
288.591  7.46000000e+02 
288.519  7.79000000e+02 
288.447  7.43000000e+02 
288.375  7.72000000e+02 
288.304  7.17000000e+02 
288.232  7.47000000e+02 
288.160  7.82000000e+02 
288.088  7.28000000e+02 
288.017  7.77000000e+02 
287.945  7.42000000e+02 
287.873  7.49000000e+02 
287.802  8.08000000e+02 
287.730  8.59000000e+02 
287.658  8.41000000e+02 
287.586  8.37000000e+02 
287.515  8.53000000e+02 
287.443  7.92000000e+02 
287.371  9.02000000e+02 
287.299  8.09000000e+02 
287.228  8.55000000e+02 
287.156  8.98000000e+02 
287.084  8.89000000e+02 
287.013  1.03100000e+03 
286.941  9.75000000e+02 
286.869  9.44000000e+02 
286.797  1.03300000e+03 
286.726  1.04000000e+03 
286.654  1.03900000e+03 
286.582  1.07700000e+03 
286.510  1.08700000e+03 
286.439  1.08700000e+03 
286.367  1.08600000e+03 
286.295  1.16500000e+03 
286.224  1.18100000e+03 
286.152  1.23300000e+03 
286.080  1.22000000e+03 
286.008  1.29700000e+03 
285.937  1.34500000e+03 
285.865  1.30300000e+03 
285.793  1.43400000e+03 
285.721  1.45700000e+03 
285.650  1.48600000e+03 
285.578  1.43100000e+03 
285.506  1.50000000e+03 
285.435  1.68100000e+03 
285.363  1.50600000e+03 
285.291  1.56200000e+03 
285.219  1.54500000e+03 
285.148  1.58000000e+03 
285.076  1.54200000e+03 
285.004  1.52400000e+03 
284.932  1.51700000e+03 
284.861  1.51500000e+03 
284.789  1.48200000e+03 
284.717  1.40700000e+03 
284.646  1.41500000e+03 
284.574  1.28900000e+03 
284.502  1.27300000e+03 
284.430  1.23300000e+03 
284.359  1.12400000e+03 
284.287  1.11300000e+03 
284.215  9.79000000e+02 
284.143  9.59000000e+02 
284.072  9.98000000e+02 
284.000  9.04000000e+02 
283.928  8.59000000e+02 
283.857  8.02000000e+02 
283.785  8.10000000e+02 
283.713  8.13000000e+02 
283.641  7.77000000e+02 
283.570  7.08000000e+02 
283.498  7.72000000e+02 
283.426  6.86000000e+02 
283.354  7.23000000e+02 
283.283  7.10000000e+02 
283.211  6.97000000e+02 
283.139  6.79000000e+02 
283.068  6.73000000e+02 
282.996  7.31000000e+02 
282.924  6.40000000e+02 
282.852  6.78000000e+02 
282.781  7.33000000e+02 
282.709  7.19000000e+02 
282.637  7.15000000e+02 
282.565  7.18000000e+02 
282.494  7.26000000e+02 
282.422  7.00000000e+02 
282.350  7.02000000e+02 
282.279  6.57000000e+02 
282.207  6.73000000e+02 
282.135  6.68000000e+02 
282.063  6.56000000e+02 
281.992  6.57000000e+02 
281.920  6.50000000e+02 
281.848  7.02000000e+02 
281.776  6.48000000e+02 
281.705  6.86000000e+02 
281.633  6.87000000e+02 
281.561  7.14000000e+02 
281.490  6.45000000e+02 
281.418  6.40000000e+02 
281.346  6.93000000e+02 
281.274  7.29000000e+02 
281.203  7.09000000e+02 
281.131  6.93000000e+02 
281.059  6.75000000e+02 
280.987  6.61000000e+02 
280.916  6.89000000e+02 
280.844  6.47000000e+02 
280.772  6.74000000e+02 
280.701  7.21000000e+02 
280.629  6.43000000e+02 
280.557  6.68000000e+02 
280.485  6.92000000e+02 
280.414  6.92000000e+02 
280.342  6.33000000e+02 
280.270  6.68000000e+02 
280.198  6.35000000e+02 
280.127  7.08000000e+02 
280.055  7.07000000e+02 
279.983  6.34000000e+02 
279.912  6.56000000e+02 
279.840  6.58000000e+02 
279.768  6.64000000e+02 
279.696  7.10000000e+02 
279.625  6.65000000e+02 
279.553  6.55000000e+02 
279.481  7.18000000e+02 
279.409  7.03000000e+02 
279.338  6.84000000e+02 
279.266  6.98000000e+02 
279.194  6.92000000e+02 
279.123  6.45000000e+02 
279.051  7.20000000e+02 
[ Region 3 Curve ]
BEcenter= 284.000 
BEwidth= -9.898  
Excitation= 1486.600
Time_p_channel= 512.000 
Size= 139
288.949  1.07700000e+03 
288.877  1.04800000e+03 
288.806  1.06500000e+03 
288.734  1.08700000e+03 
288.662  1.05600000e+03 
288.591  1.07100000e+03 
288.519  1.05500000e+03 
288.447  1.06700000e+03 
288.375  1.09000000e+03 
288.304  1.10800000e+03 
288.232  1.13700000e+03 
288.160  1.08100000e+03 
288.088  1.07800000e+03 
288.017  1.16000000e+03 
287.945  1.15700000e+03 
287.873  1.06800000e+03 
287.802  1.13100000e+03 
287.730  1.19600000e+03 
287.658  1.18100000e+03 
287.586  1.15300000e+03 
287.515  1.16300000e+03 
287.443  1.27900000e+03 
287.371  1.16500000e+03 
287.299  1.22500000e+03 
287.228  1.27800000e+03 
287.156  1.33100000e+03 
287.084  1.28700000e+03 
287.013  1.38100000e+03 
286.941  1.37600000e+03 
286.869  1.43200000e+03 
286.797  1.49100000e+03 
286.726  1.49800000e+03 
286.654  1.57500000e+03 
286.582  1.55600000e+03 
286.510  1.54900000e+03 
286.439  1.60700000e+03 
286.367  1.60100000e+03 
286.295  1.61000000e+03 
286.224  1.66200000e+03 
286.152  1.73200000e+03 
286.080  1.77000000e+03 
286.008  1.88800000e+03 
285.937  1.83300000e+03 
285.865  1.92800000e+03 
285.793  2.06300000e+03 
285.721  2.02700000e+03 
285.650  1.97500000e+03 
285.578  2.04600000e+03 
285.506  2.16900000e+03 
285.435  2.17100000e+03 
285.363  2.17200000e+03 
285.291  2.25100000e+03 
285.219  2.26000000e+03 
285.148  2.19600000e+03 
285.076  2.14400000e+03 
285.004  2.14200000e+03 
284.932  2.14300000e+03 
284.861  2.14700000e+03 
284.789  2.07200000e+03 
284.717  1.97300000e+03 
284.646  1.99500000e+03 
284.574  1.79400000e+03 
284.502  1.72600000e+03 
284.430  1.71600000e+03 
284.359  1.65100000e+03 
284.287  1.44300000e+03 
284.215  1.44200000e+03 
284.143  1.42200000e+03 
284.072  1.31100000e+03 
284.000  1.26700000e+03 
283.928  1.29200000e+03 
283.857  1.12800000e+03 
283.785  1.19300000e+03 
283.713  1.13600000e+03 
283.641  1.09000000e+03 
283.570  1.10400000e+03 
283.498  1.03400000e+03 
283.426  1.06900000e+03 
283.354  1.01900000e+03 
283.283  1.04600000e+03 
283.211  1.04800000e+03 
283.139  1.05200000e+03 
283.068  1.03300000e+03 
282.996  9.84000000e+02 
282.924  9.64000000e+02 
282.852  1.01200000e+03 
282.781  1.04300000e+03 
282.709  9.62000000e+02 
282.637  9.95000000e+02 
282.565  9.87000000e+02 
282.494  1.03400000e+03 
282.422  1.06500000e+03 
282.350  9.99000000e+02 
282.279  9.88000000e+02 
282.207  9.98000000e+02 
282.135  1.01200000e+03 
282.063  9.27000000e+02 
281.992  1.01900000e+03 
281.920  1.00800000e+03 
281.848  9.54000000e+02 
281.776  9.61000000e+02 
281.705  9.70000000e+02 
281.633  1.00900000e+03 
281.561  1.02500000e+03 
281.490  9.54000000e+02 
281.418  1.00500000e+03 
281.346  9.72000000e+02 
281.274  9.65000000e+02 
281.203  9.72000000e+02 
281.131  9.76000000e+02 
281.059  9.65000000e+02 
280.987  9.61000000e+02 
280.916  9.80000000e+02 
280.844  9.95000000e+02 
280.772  9.30000000e+02 
280.701  9.60000000e+02 
280.629  1.02500000e+03 
280.557  9.63000000e+02 
280.485  1.01400000e+03 
280.414  9.57000000e+02 
280.342  1.02600000e+03 
280.270  9.87000000e+02 
280.198  1.01500000e+03 
280.127  1.07700000e+03 
280.055  9.85000000e+02 
279.983  1.02300000e+03 
279.912  9.96000000e+02 
279.840  9.76000000e+02 
279.768  1.01900000e+03 
279.696  1.02100000e+03 
279.625  1.00400000e+03 
279.553  9.92000000e+02 
279.481  9.85000000e+02 
279.409  9.55000000e+02 
279.338  9.61000000e+02 
279.266  9.97000000e+02 
279.194  9.60000000e+02 
279.123  1.01200000e+03 
279.051  9.43000000e+02 
[ Region 4 Curve ]
BEcenter= 284.000 
BEwidth= -9.898  
Excitation= 1486.600
Time_p_channel= 512.000 
Size= 139
288.949  1.46100000e+03 
288.877  1.48400000e+03 
288.806  1.42200000e+03 
288.734  1.43100000e+03 
288.662  1.43800000e+03 
288.591  1.45900000e+03 
288.519  1.45600000e+03 
288.447  1.44700000e+03 
288.375  1.43600000e+03 
288.304  1.49000000e+03 
288.232  1.48400000e+03 
288.160  1.53900000e+03 
288.088  1.42000000e+03 
288.017  1.42600000e+03 
287.945  1.54300000e+03 
287.873  1.47300000e+03 
287.802  1.52700000e+03 
287.730  1.55300000e+03 
287.658  1.58200000e+03 
287.586  1.64700000e+03 
287.515  1.68800000e+03 
287.443  1.55000000e+03 
287.371  1.70600000e+03 
287.299  1.65500000e+03 
287.228  1.72000000e+03 
287.156  1.73800000e+03 
287.084  1.70900000e+03 
287.013  1.76100000e+03 
286.941  1.83000000e+03 
286.869  1.92900000e+03 
286.797  1.91100000e+03 
286.726  2.01900000e+03 
286.654  1.96500000e+03 
286.582  2.07900000e+03 
286.510  2.02900000e+03 
286.439  2.06200000e+03 
286.367  2.05400000e+03 
286.295  2.23700000e+03 
286.224  2.21300000e+03 
286.152  2.29400000e+03 
286.080  2.32300000e+03 
286.008  2.39700000e+03 
285.937  2.47900000e+03 
285.865  2.54400000e+03 
285.793  2.54600000e+03 
285.721  2.61400000e+03 
285.650  2.66900000e+03 
285.578  2.65800000e+03 
285.506  2.70600000e+03 
285.435  2.86000000e+03 
285.363  2.81600000e+03 
285.291  2.83900000e+03 
285.219  2.89700000e+03 
285.148  2.82800000e+03 
285.076  2.81900000e+03 
285.004  2.81900000e+03 
284.932  2.73000000e+03 
284.861  2.74900000e+03 
284.789  2.52800000e+03 
284.717  2.59500000e+03 
284.646  2.50200000e+03 
284.574  2.40600000e+03 
284.502  2.31700000e+03 
284.430  2.17700000e+03 
284.359  2.11600000e+03 
284.287  1.98400000e+03 
284.215  1.90500000e+03 
284.143  1.85900000e+03 
284.072  1.77200000e+03 
284.000  1.70700000e+03 
283.928  1.67800000e+03 
283.857  1.57100000e+03 
283.785  1.54200000e+03 
283.713  1.52500000e+03 
283.641  1.45900000e+03 
283.570  1.44900000e+03 
283.498  1.46400000e+03 
283.426  1.40500000e+03 
283.354  1.35900000e+03 
283.283  1.37800000e+03 
283.211  1.36700000e+03 
283.139  1.37100000e+03 
283.068  1.28500000e+03 
282.996  1.38900000e+03 
282.924  1.32200000e+03 
282.852  1.36800000e+03 
282.781  1.32800000e+03 
282.709  1.35800000e+03 
282.637  1.37900000e+03 
282.565  1.33900000e+03 
282.494  1.33300000e+03 
282.422  1.33400000e+03 
282.350  1.35600000e+03 
282.279  1.38800000e+03 
282.207  1.31900000e+03 
282.135  1.36200000e+03 
282.063  1.31200000e+03 
281.992  1.32600000e+03 
281.920  1.26700000e+03 
281.848  1.38600000e+03 
281.776  1.31100000e+03 
281.705  1.34600000e+03 
281.633  1.34400000e+03 
281.561  1.35000000e+03 
281.490  1.37200000e+03 
281.418  1.35800000e+03 
281.346  1.30200000e+03 
281.274  1.31800000e+03 
281.203  1.29400000e+03 
281.131  1.33800000e+03 
281.059  1.32600000e+03 
280.987  1.34600000e+03 
280.916  1.36100000e+03 
280.844  1.32800000e+03 
280.772  1.30100000e+03 
280.701  1.36800000e+03 
280.629  1.38600000e+03 
280.557  1.28800000e+03 
280.485  1.36300000e+03 
280.414  1.26100000e+03 
280.342  1.31100000e+03 
280.270  1.36200000e+03 
280.198  1.31000000e+03 
280.127  1.32300000e+03 
280.055  1.30900000e+03 
279.983  1.33200000e+03 
279.912  1.32100000e+03 
279.840  1.27900000e+03 
279.768  1.31100000e+03 
279.696  1.28300000e+03 
279.625  1.38300000e+03 
279.553  1.35300000e+03 
279.481  1.33000000e+03 
279.409  1.37100000e+03 
279.338  1.35300000e+03 
279.266  1.33700000e+03 
279.194  1.31900000e+03 
279.123  1.35200000e+03 
279.051  1.30200000e+03 
[ Region 5 Curve ]
BEcenter= 284.000 
BEwidth= -9.898  
Excitation= 1486.600
Time_p_channel= 512.000 
Size= 139
288.949  1.77200000e+03 
288.877  1.77300000e+03 
288.806  1.81600000e+03 
288.734  1.82400000e+03 
288.662  1.72800000e+03 
288.591  1.75700000e+03 
288.519  1.82100000e+03 
288.447  1.79100000e+03 
288.375  1.80000000e+03 
288.304  1.80700000e+03 
288.232  1.76100000e+03 
288.160  1.78200000e+03 
288.088  1.85200000e+03 
288.017  1.85400000e+03 
287.945  1.87700000e+03 
287.873  1.91200000e+03 
287.802  1.90200000e+03 
287.730  1.90800000e+03 
287.658  1.89600000e+03 
287.586  1.99400000e+03 
287.515  1.90600000e+03 
287.443  1.99500000e+03 
287.371  1.97700000e+03 
287.299  1.98600000e+03 
287.228  2.05300000e+03 
287.156  2.11400000e+03 
287.084  2.16000000e+03 
287.013  2.13700000e+03 
286.941  2.14800000e+03 
286.869  2.24800000e+03 
286.797  2.31000000e+03 
286.726  2.39600000e+03 
286.654  2.37700000e+03 
286.582  2.46600000e+03 
286.510  2.45400000e+03 
286.439  2.55800000e+03 
286.367  2.60100000e+03 
286.295  2.66900000e+03 
286.224  2.75100000e+03 
286.152  2.78300000e+03 
286.080  2.88800000e+03 
286.008  2.83200000e+03 
285.937  2.93200000e+03 
285.865  3.15600000e+03 
285.793  3.08000000e+03 
285.721  3.06600000e+03 
285.650  3.28200000e+03 
285.578  3.23500000e+03 
285.506  3.34800000e+03 
285.435  3.32300000e+03 
285.363  3.39600000e+03 
285.291  3.35600000e+03 
285.219  3.43100000e+03 
285.148  3.35300000e+03 
285.076  3.41200000e+03 
285.004  3.32600000e+03 
284.932  3.33100000e+03 
284.861  3.40600000e+03 
284.789  3.39600000e+03 
284.717  3.16000000e+03 
284.646  3.01100000e+03 
284.574  2.90400000e+03 
284.502  2.83300000e+03 
284.430  2.72800000e+03 
284.359  2.61400000e+03 
284.287  2.51500000e+03 
284.215  2.38100000e+03 
284.143  2.36500000e+03 
284.072  2.20200000e+03 
284.000  2.16300000e+03 
283.928  2.04400000e+03 
283.857  2.08100000e+03 
283.785  1.96800000e+03 
283.713  1.90200000e+03 
283.641  1.79800000e+03 
283.570  1.81700000e+03 
283.498  1.84200000e+03 
283.426  1.76100000e+03 
283.354  1.78000000e+03 
283.283  1.73300000e+03 
283.211  1.76700000e+03 
283.139  1.74600000e+03 
283.068  1.73400000e+03 
282.996  1.80000000e+03 
282.924  1.64500000e+03 
282.852  1.69900000e+03 
282.781  1.65500000e+03 
282.709  1.69100000e+03 
282.637  1.61800000e+03 
282.565  1.70800000e+03 
282.494  1.71700000e+03 
282.422  1.63500000e+03 
282.350  1.57100000e+03 
282.279  1.65500000e+03 
282.207  1.69100000e+03 
282.135  1.68200000e+03 
282.063  1.74400000e+03 
281.992  1.73000000e+03 
281.920  1.64900000e+03 
281.848  1.63600000e+03 
281.776  1.57800000e+03 
281.705  1.61600000e+03 
281.633  1.65300000e+03 
281.561  1.68200000e+03 
281.490  1.65100000e+03 
281.418  1.70200000e+03 
281.346  1.69100000e+03 
281.274  1.70300000e+03 
281.203  1.67300000e+03 
281.131  1.74800000e+03 
281.059  1.66100000e+03 
280.987  1.70600000e+03 
280.916  1.68900000e+03 
280.844  1.71600000e+03 
280.772  1.66300000e+03 
280.701  1.67100000e+03 
280.629  1.66700000e+03 
280.557  1.65000000e+03 
280.485  1.63400000e+03 
280.414  1.64700000e+03 
280.342  1.60600000e+03 
280.270  1.64000000e+03 
280.198  1.60500000e+03 
280.127  1.59700000e+03 
280.055  1.68700000e+03 
279.983  1.66100000e+03 
279.912  1.64600000e+03 
279.840  1.64500000e+03 
279.768  1.62600000e+03 
279.696  1.63600000e+03 
279.625  1.66900000e+03 
279.553  1.65600000e+03 
279.481  1.66800000e+03 
279.409  1.66700000e+03 
279.338  1.63600000e+03 
279.266  1.68400000e+03 
279.194  1.67900000e+03 
279.123  1.69900000e+03 
279.051  1.66300000e+03 
[ Region 6 Curve ]
BEcenter= 284.000 
BEwidth= -9.898  
Excitation= 1486.600
Time_p_channel= 512.000 
Size= 139
288.949  2.19200000e+03 
288.877  2.18000000e+03 
288.806  2.14600000e+03 
288.734  2.25000000e+03 
288.662  2.19800000e+03 
288.591  2.14200000e+03 
288.519  2.23200000e+03 
288.447  2.16600000e+03 
288.375  2.21000000e+03 
288.304  2.10400000e+03 
288.232  2.20600000e+03 
288.160  2.20000000e+03 
288.088  2.28400000e+03 
288.017  2.21600000e+03 
287.945  2.28300000e+03 
287.873  2.26600000e+03 
287.802  2.25000000e+03 
287.730  2.30500000e+03 
287.658  2.32500000e+03 
287.586  2.36000000e+03 
287.515  2.28900000e+03 
287.443  2.41100000e+03 
287.371  2.40300000e+03 
287.299  2.45000000e+03 
287.228  2.43500000e+03 
287.156  2.41400000e+03 
287.084  2.50400000e+03 
287.013  2.64000000e+03 
286.941  2.66900000e+03 
286.869  2.67000000e+03 
286.797  2.73900000e+03 
286.726  2.75800000e+03 
286.654  2.83500000e+03 
286.582  2.89100000e+03 
286.510  2.83000000e+03 
286.439  2.94200000e+03 
286.367  3.07100000e+03 
286.295  3.01000000e+03 
286.224  3.11600000e+03 
286.152  3.22300000e+03 
286.080  3.45900000e+03 
286.008  3.40300000e+03 
285.937  3.46200000e+03 
285.865  3.45900000e+03 
285.793  3.58900000e+03 
285.721  3.57000000e+03 
285.650  3.55800000e+03 
285.578  3.65200000e+03 
285.506  3.81600000e+03 
285.435  3.91600000e+03 
285.363  3.97900000e+03 
285.291  3.96800000e+03 
285.219  3.97800000e+03 
285.148  4.04100000e+03 
285.076  4.04200000e+03 
285.004  3.92300000e+03 
284.932  4.08000000e+03 
284.861  3.84100000e+03 
284.789  3.87800000e+03 
284.717  3.82800000e+03 
284.646  3.79600000e+03 
284.574  3.73300000e+03 
284.502  3.56900000e+03 
284.430  3.45300000e+03 
284.359  3.14800000e+03 
284.287  3.21000000e+03 
284.215  3.13300000e+03 
284.143  2.89800000e+03 
284.072  2.89800000e+03 
284.000  2.68300000e+03 
283.928  2.59500000e+03 
283.857  2.64000000e+03 
283.785  2.48100000e+03 
283.713  2.43100000e+03 
283.641  2.28900000e+03 
283.570  2.34800000e+03 
283.498  2.26900000e+03 
283.426  2.25800000e+03 
283.354  2.14700000e+03 
283.283  2.11700000e+03 
283.211  2.10900000e+03 
283.139  2.04900000e+03 
283.068  2.06500000e+03 
282.996  2.08400000e+03 
282.924  2.03700000e+03 
282.852  2.11800000e+03 
282.781  2.06000000e+03 
282.709  2.00700000e+03 
282.637  1.95900000e+03 
282.565  2.06000000e+03 
282.494  2.05900000e+03 
282.422  2.04700000e+03 
282.350  2.02000000e+03 
282.279  1.96900000e+03 
282.207  2.01200000e+03 
282.135  2.03300000e+03 
282.063  2.04200000e+03 
281.992  1.99800000e+03 
281.920  2.03500000e+03 
281.848  1.98200000e+03 
281.776  1.98300000e+03 
281.705  2.04100000e+03 
281.633  2.04500000e+03 
281.561  2.00900000e+03 
281.490  2.04400000e+03 
281.418  2.10300000e+03 
281.346  2.02600000e+03 
281.274  2.01200000e+03 
281.203  2.09000000e+03 
281.131  1.97900000e+03 
281.059  1.99100000e+03 
280.987  2.02500000e+03 
280.916  1.97800000e+03 
280.844  2.03200000e+03 
280.772  2.08400000e+03 
280.701  2.00000000e+03 
280.629  1.99400000e+03 
280.557  1.99600000e+03 
280.485  1.99800000e+03 
280.414  2.03400000e+03 
280.342  2.00300000e+03 
280.270  2.03100000e+03 
280.198  1.98600000e+03 
280.127  1.97900000e+03 
280.055  2.02800000e+03 
279.983  1.93000000e+03 
279.912  2.00800000e+03 
279.840  2.09900000e+03 
279.768  2.04500000e+03 
279.696  2.03100000e+03 
279.625  1.98000000e+03 
279.553  2.08200000e+03 
279.481  1.98600000e+03 
279.409  2.04500000e+03 
279.338  1.97400000e+03 
279.266  2.01500000e+03 
279.194  1.92200000e+03 
279.123  2.08000000e+03 
279.051  2.01700000e+03 
[ Region 7 Curve ]
BEcenter= 284.000 
BEwidth= -9.898  
Excitation= 1486.600
Time_p_channel= 512.000 
Size= 139
288.949  2.58000000e+03 
288.877  2.57000000e+03 
288.806  2.57400000e+03 
288.734  2.51600000e+03 
288.662  2.52800000e+03 
288.591  2.49200000e+03 
288.519  2.53200000e+03 
288.447  2.55100000e+03 
288.375  2.55100000e+03 
288.304  2.62500000e+03 
288.232  2.56500000e+03 
288.160  2.51800000e+03 
288.088  2.54800000e+03 
288.017  2.53300000e+03 
287.945  2.59500000e+03 
287.873  2.58100000e+03 
287.802  2.62400000e+03 
287.730  2.59400000e+03 
287.658  2.75200000e+03 
287.586  2.70600000e+03 
287.515  2.78000000e+03 
287.443  2.86300000e+03 
287.371  2.76900000e+03 
287.299  2.78300000e+03 
287.228  2.86600000e+03 
287.156  2.86800000e+03 
287.084  2.97600000e+03 
287.013  2.94300000e+03 
286.941  2.98000000e+03 
286.869  3.01700000e+03 
286.797  3.06800000e+03 
286.726  3.24400000e+03 
286.654  3.31400000e+03 
286.582  3.29200000e+03 
286.510  3.34200000e+03 
286.439  3.47900000e+03 
286.367  3.59100000e+03 
286.295  3.50600000e+03 
286.224  3.63100000e+03 
286.152  3.71300000e+03 
286.080  3.67500000e+03 
286.008  3.68600000e+03 
285.937  3.88600000e+03 
285.865  4.08000000e+03 
285.793  4.14100000e+03 
285.721  4.11100000e+03 
285.650  4.31000000e+03 
285.578  4.35000000e+03 
285.506  4.35900000e+03 
285.435  4.40600000e+03 
285.363  4.51200000e+03 
285.291  4.48500000e+03 
285.219  4.56800000e+03 
285.148  4.57400000e+03 
285.076  4.58100000e+03 
285.004  4.64400000e+03 
284.932  4.45400000e+03 
284.861  4.57400000e+03 
284.789  4.43200000e+03 
284.717  4.40200000e+03 
284.646  4.34600000e+03 
284.574  4.19600000e+03 
284.502  4.07200000e+03 
284.430  4.07300000e+03 
284.359  3.96300000e+03 
284.287  3.83200000e+03 
284.215  3.67600000e+03 
284.143  3.63800000e+03 
284.072  3.46400000e+03 
284.000  3.31600000e+03 
283.928  3.18600000e+03 
283.857  3.10600000e+03 
283.785  3.07100000e+03 
283.713  2.88900000e+03 
283.641  2.90000000e+03 
283.570  2.78700000e+03 
283.498  2.78400000e+03 
283.426  2.67300000e+03 
283.354  2.63300000e+03 
283.283  2.54600000e+03 
283.211  2.53000000e+03 
283.139  2.55000000e+03 
283.068  2.57100000e+03 
282.996  2.48800000e+03 
282.924  2.42200000e+03 
282.852  2.55900000e+03 
282.781  2.31200000e+03 
282.709  2.43400000e+03 
282.637  2.38000000e+03 
282.565  2.48700000e+03 
282.494  2.32800000e+03 
282.422  2.38500000e+03 
282.350  2.39500000e+03 
282.279  2.37700000e+03 
282.207  2.36500000e+03 
282.135  2.39400000e+03 
282.063  2.32400000e+03 
281.992  2.43600000e+03 
281.920  2.37100000e+03 
281.848  2.27800000e+03 
281.776  2.35600000e+03 
281.705  2.30100000e+03 
281.633  2.40700000e+03 
281.561  2.33400000e+03 
281.490  2.34700000e+03 
281.418  2.36100000e+03 
281.346  2.35300000e+03 
281.274  2.38400000e+03 
281.203  2.33000000e+03 
281.131  2.31700000e+03 
281.059  2.22500000e+03 
280.987  2.30900000e+03 
280.916  2.28700000e+03 
280.844  2.42500000e+03 
280.772  2.33100000e+03 
280.701  2.36300000e+03 
280.629  2.36200000e+03 
280.557  2.38300000e+03 
280.485  2.26700000e+03 
280.414  2.36100000e+03 
280.342  2.42900000e+03 
280.270  2.27500000e+03 
280.198  2.29300000e+03 
280.127  2.37700000e+03 
280.055  2.39300000e+03 
279.983  2.34800000e+03 
279.912  2.29600000e+03 
279.840  2.29000000e+03 
279.768  2.33000000e+03 
279.696  2.42700000e+03 
279.625  2.29500000e+03 
279.553  2.39200000e+03 
279.481  2.32200000e+03 
279.409  2.33400000e+03 
279.338  2.44000000e+03 
279.266  2.42900000e+03 
279.194  2.40000000e+03 
279.123  2.35900000e+03 
279.051  2.35300000e+03 
[ Region 8 Curve ]
BEcenter= 284.000 
BEwidth= -9.898  
Excitation= 1486.600
Time_p_channel= 512.000 
Size= 139
288.949  2.90400000e+03 
288.877  2.75600000e+03 
288.806  2.79000000e+03 
288.734  2.85500000e+03 
288.662  2.84000000e+03 
288.591  2.87700000e+03 
288.519  2.91100000e+03 
288.447  2.87400000e+03 
288.375  2.87800000e+03 
288.304  2.90400000e+03 
288.232  2.87300000e+03 
288.160  2.91200000e+03 
288.088  2.89300000e+03 
288.017  2.92000000e+03 
287.945  2.98900000e+03 
287.873  2.95600000e+03 
287.802  3.00000000e+03 
287.730  2.97900000e+03 
287.658  2.99000000e+03 
287.586  3.07800000e+03 
287.515  3.02100000e+03 
287.443  3.09400000e+03 
287.371  3.08900000e+03 
287.299  3.11600000e+03 
287.228  3.31100000e+03 
287.156  3.24800000e+03 
287.084  3.37100000e+03 
287.013  3.30700000e+03 
286.941  3.35700000e+03 
286.869  3.51200000e+03 
286.797  3.40600000e+03 
286.726  3.59000000e+03 
286.654  3.56800000e+03 
286.582  3.59900000e+03 
286.510  3.62500000e+03 
286.439  3.78100000e+03 
286.367  3.84600000e+03 
286.295  3.92800000e+03 
286.224  3.95900000e+03 
286.152  4.11700000e+03 
286.080  4.20900000e+03 
286.008  4.18200000e+03 
285.937  4.21000000e+03 
285.865  4.32700000e+03 
285.793  4.50700000e+03 
285.721  4.61900000e+03 
285.650  4.71000000e+03 
285.578  4.76300000e+03 
285.506  4.98700000e+03 
285.435  4.83200000e+03 
285.363  4.85800000e+03 
285.291  4.89400000e+03 
285.219  4.96900000e+03 
285.148  4.91300000e+03 
285.076  4.98400000e+03 
285.004  4.90700000e+03 
284.932  4.99000000e+03 
284.861  4.85500000e+03 
284.789  4.91300000e+03 
284.717  4.94900000e+03 
284.646  4.81200000e+03 
284.574  4.72300000e+03 
284.502  4.57600000e+03 
284.430  4.59700000e+03 
284.359  4.46400000e+03 
284.287  4.44300000e+03 
284.215  4.26200000e+03 
284.143  4.10600000e+03 
284.072  3.97600000e+03 
284.000  3.97300000e+03 
283.928  3.85900000e+03 
283.857  3.63000000e+03 
283.785  3.55300000e+03 
283.713  3.53000000e+03 
283.641  3.31500000e+03 
283.570  3.34000000e+03 
283.498  3.21200000e+03 
283.426  3.22100000e+03 
283.354  3.00400000e+03 
283.283  2.91300000e+03 
283.211  2.95800000e+03 
283.139  2.88900000e+03 
283.068  2.83200000e+03 
282.996  2.78000000e+03 
282.924  2.85900000e+03 
282.852  2.74800000e+03 
282.781  2.69100000e+03 
282.709  2.72200000e+03 
282.637  2.71500000e+03 
282.565  2.74400000e+03 
282.494  2.66400000e+03 
282.422  2.64800000e+03 
282.350  2.70300000e+03 
282.279  2.70900000e+03 
282.207  2.81100000e+03 
282.135  2.66200000e+03 
282.063  2.64200000e+03 
281.992  2.70600000e+03 
281.920  2.69900000e+03 
281.848  2.70900000e+03 
281.776  2.66800000e+03 
281.705  2.66600000e+03 
281.633  2.65600000e+03 
281.561  2.68800000e+03 
281.490  2.69100000e+03 
281.418  2.62700000e+03 
281.346  2.63500000e+03 
281.274  2.66500000e+03 
281.203  2.62900000e+03 
281.131  2.70800000e+03 
281.059  2.64900000e+03 
280.987  2.71300000e+03 
280.916  2.68900000e+03 
280.844  2.63200000e+03 
280.772  2.62000000e+03 
280.701  2.72800000e+03 
280.629  2.66500000e+03 
280.557  2.68500000e+03 
280.485  2.68700000e+03 
280.414  2.65800000e+03 
280.342  2.72400000e+03 
280.270  2.63700000e+03 
280.198  2.58100000e+03 
280.127  2.67200000e+03 
280.055  2.57000000e+03 
279.983  2.55600000e+03 
279.912  2.60400000e+03 
279.840  2.61000000e+03 
279.768  2.61200000e+03 
279.696  2.70200000e+03 
279.625  2.71600000e+03 
279.553  2.71100000e+03 
279.481  2.64500000e+03 
279.409  2.61600000e+03 
279.338  2.69000000e+03 
279.266  2.62500000e+03 
279.194  2.60900000e+03 
279.123  2.75600000e+03 
279.051  2.74900000e+03 
[ Region 9 Curve ]
BEcenter= 284.000 
BEwidth= -9.898  
Excitation= 1486.600
Time_p_channel= 512.000 
Size= 139
288.949  2.84300000e+03 
288.877  2.92600000e+03 
288.806  2.91800000e+03 
288.734  2.86900000e+03 
288.662  2.97300000e+03 
288.591  2.84300000e+03 
288.519  2.89900000e+03 
288.447  2.91900000e+03 
288.375  2.88500000e+03 
288.304  2.94000000e+03 
288.232  2.90400000e+03 
288.160  2.93700000e+03 
288.088  3.00900000e+03 
288.017  2.96600000e+03 
287.945  2.95100000e+03 
287.873  2.96100000e+03 
287.802  3.02100000e+03 
287.730  3.07000000e+03 
287.658  3.05900000e+03 
287.586  3.06300000e+03 
287.515  3.01900000e+03 
287.443  3.08800000e+03 
287.371  3.06700000e+03 
287.299  3.18000000e+03 
287.228  3.21000000e+03 
287.156  3.28200000e+03 
287.084  3.17100000e+03 
287.013  3.21500000e+03 
286.941  3.27400000e+03 
286.869  3.38000000e+03 
286.797  3.44500000e+03 
286.726  3.44600000e+03 
286.654  3.58600000e+03 
286.582  3.45600000e+03 
286.510  3.68500000e+03 
286.439  3.66400000e+03 
286.367  3.80600000e+03 
286.295  3.79600000e+03 
286.224  3.93200000e+03 
286.152  3.84800000e+03 
286.080  4.08300000e+03 
286.008  4.11700000e+03 
285.937  4.05100000e+03 
285.865  4.15700000e+03 
285.793  4.33600000e+03 
285.721  4.53000000e+03 
285.650  4.44400000e+03 
285.578  4.55000000e+03 
285.506  4.67600000e+03 
285.435  4.77200000e+03 
285.363  4.59800000e+03 
285.291  4.78400000e+03 
285.219  4.72200000e+03 
285.148  4.82700000e+03 
285.076  4.81400000e+03 
285.004  4.84100000e+03 
284.932  4.95400000e+03 
284.861  5.03900000e+03 
284.789  4.81200000e+03 
284.717  4.75100000e+03 
284.646  4.79700000e+03 
284.574  4.77800000e+03 
284.502  4.72100000e+03 
284.430  4.72700000e+03 
284.359  4.69100000e+03 
284.287  4.52400000e+03 
284.215  4.58300000e+03 
284.143  4.34900000e+03 
284.072  4.37400000e+03 
284.000  4.29800000e+03 
283.928  3.98200000e+03 
283.857  3.99500000e+03 
283.785  3.82700000e+03 
283.713  3.68200000e+03 
283.641  3.71600000e+03 
283.570  3.53500000e+03 
283.498  3.57700000e+03 
283.426  3.44300000e+03 
283.354  3.33300000e+03 
283.283  3.14000000e+03 
283.211  3.12600000e+03 
283.139  3.14400000e+03 
283.068  3.07800000e+03 
282.996  3.08400000e+03 
282.924  3.04500000e+03 
282.852  2.94900000e+03 
282.781  2.97000000e+03 
282.709  2.84100000e+03 
282.637  2.81800000e+03 
282.565  2.88200000e+03 
282.494  2.81800000e+03 
282.422  2.83100000e+03 
282.350  2.78300000e+03 
282.279  2.81000000e+03 
282.207  2.77700000e+03 
282.135  2.78000000e+03 
282.063  2.67000000e+03 
281.992  2.79200000e+03 
281.920  2.76600000e+03 
281.848  2.73400000e+03 
281.776  2.83900000e+03 
281.705  2.70100000e+03 
281.633  2.74600000e+03 
281.561  2.71600000e+03 
281.490  2.76900000e+03 
281.418  2.63600000e+03 
281.346  2.81400000e+03 
281.274  2.72800000e+03 
281.203  2.65500000e+03 
281.131  2.74600000e+03 
281.059  2.66000000e+03 
280.987  2.71900000e+03 
280.916  2.73300000e+03 
280.844  2.68400000e+03 
280.772  2.68100000e+03 
280.701  2.70500000e+03 
280.629  2.69300000e+03 
280.557  2.68700000e+03 
280.485  2.73800000e+03 
280.414  2.63200000e+03 
280.342  2.64500000e+03 
280.270  2.70200000e+03 
280.198  2.71100000e+03 
280.127  2.76600000e+03 
280.055  2.68700000e+03 
279.983  2.61800000e+03 
279.912  2.66000000e+03 
279.840  2.64600000e+03 
279.768  2.66700000e+03 
279.696  2.76900000e+03 
279.625  2.63400000e+03 
279.553  2.64700000e+03 
279.481  2.63700000e+03 
279.409  2.71000000e+03 
279.338  2.72600000e+03 
279.266  2.73700000e+03 
279.194  2.62300000e+03 
279.123  2.75600000e+03 
279.051  2.66500000e+03 
