[ Experiment Parameters ]
Experiment Description= C1s, mono=6.75+-0.10,  take-off = -40,-30,...40 
Number_of_Regions_in_Experiment= 9 

Original_File_name= c:\alexesca\data\97071501.xps 
Instrument= ESCA-West
Date= 07-15-1997
Time=  07:49:32

[ Region 1 Parameters ]
Region_Description = C 1s    dithered                           
BEcenter(eV) = 284.000000
BEwidth(eV) = 10.000000
BEstep(eV) = 0.071875
Dwell_Time(sec) = 1.000000
N_o_scans = 1  
N_o_Channels = 139  
Excitation_Energy = 0.000000  
Scan_mode = 0  (DITHERED)

[ Region 2 Parameters ]
Region_Description = C 1s    dithered                           
BEcenter(eV) = 284.000000
BEwidth(eV) = 10.000000
BEstep(eV) = 0.071875
Dwell_Time(sec) = 1.000000
N_o_scans = 1  
N_o_Channels = 139  
Excitation_Energy = 0.000000  
Scan_mode = 0  (DITHERED)

[ Region 3 Parameters ]
Region_Description = C 1s    dithered                           
BEcenter(eV) = 284.000000
BEwidth(eV) = 10.000000
BEstep(eV) = 0.071875
Dwell_Time(sec) = 1.000000
N_o_scans = 1  
N_o_Channels = 139  
Excitation_Energy = 0.000000  
Scan_mode = 0  (DITHERED)

[ Region 4 Parameters ]
Region_Description = C 1s    dithered                           
BEcenter(eV) = 284.000000
BEwidth(eV) = 10.000000
BEstep(eV) = 0.071875
Dwell_Time(sec) = 1.000000
N_o_scans = 1  
N_o_Channels = 139  
Excitation_Energy = 0.000000  
Scan_mode = 0  (DITHERED)

[ Region 5 Parameters ]
Region_Description = C 1s    dithered                           
BEcenter(eV) = 284.000000
BEwidth(eV) = 10.000000
BEstep(eV) = 0.071875
Dwell_Time(sec) = 1.000000
N_o_scans = 1  
N_o_Channels = 139  
Excitation_Energy = 0.000000  
Scan_mode = 0  (DITHERED)

[ Region 6 Parameters ]
Region_Description = C 1s    dithered                           
BEcenter(eV) = 284.000000
BEwidth(eV) = 10.000000
BEstep(eV) = 0.071875
Dwell_Time(sec) = 1.000000
N_o_scans = 1  
N_o_Channels = 139  
Excitation_Energy = 0.000000  
Scan_mode = 0  (DITHERED)

[ Region 7 Parameters ]
Region_Description = C 1s    dithered                           
BEcenter(eV) = 284.000000
BEwidth(eV) = 10.000000
BEstep(eV) = 0.071875
Dwell_Time(sec) = 1.000000
N_o_scans = 1  
N_o_Channels = 139  
Excitation_Energy = 0.000000  
Scan_mode = 0  (DITHERED)

[ Region 8 Parameters ]
Region_Description = C 1s    dithered                           
BEcenter(eV) = 284.000000
BEwidth(eV) = 10.000000
BEstep(eV) = 0.071875
Dwell_Time(sec) = 1.000000
N_o_scans = 1  
N_o_Channels = 139  
Excitation_Energy = 0.000000  
Scan_mode = 0  (DITHERED)

[ Region 9 Parameters ]
Region_Description = C 1s    dithered                           
BEcenter(eV) = 284.000000
BEwidth(eV) = 10.000000
BEstep(eV) = 0.071875
Dwell_Time(sec) = 1.000000
N_o_scans = 1  
N_o_Channels = 139  
Excitation_Energy = 0.000000  
Scan_mode = 0  (DITHERED)

[ Region 1 Curve ]
BEcenter= 284.000 
BEwidth= -9.898  
Excitation= 1486.600
Time_p_channel= 512.000 
Size= 139
288.949  3.74000000e+02 
288.877  3.83000000e+02 
288.806  4.04000000e+02 
288.734  3.27000000e+02 
288.662  4.29000000e+02 
288.591  4.18000000e+02 
288.519  3.95000000e+02 
288.447  3.67000000e+02 
288.375  4.20000000e+02 
288.304  4.21000000e+02 
288.232  3.89000000e+02 
288.160  3.77000000e+02 
288.088  3.70000000e+02 
288.017  3.76000000e+02 
287.945  3.65000000e+02 
287.873  3.92000000e+02 
287.802  4.09000000e+02 
287.730  4.39000000e+02 
287.658  4.23000000e+02 
287.586  4.13000000e+02 
287.515  4.08000000e+02 
287.443  4.34000000e+02 
287.371  4.27000000e+02 
287.299  4.33000000e+02 
287.228  4.61000000e+02 
287.156  4.57000000e+02 
287.084  4.08000000e+02 
287.013  4.47000000e+02 
286.941  4.71000000e+02 
286.869  4.73000000e+02 
286.797  4.30000000e+02 
286.726  4.89000000e+02 
286.654  4.69000000e+02 
286.582  5.21000000e+02 
286.510  5.10000000e+02 
286.439  5.20000000e+02 
286.367  4.97000000e+02 
286.295  5.71000000e+02 
286.224  5.63000000e+02 
286.152  5.81000000e+02 
286.080  5.41000000e+02 
286.008  6.23000000e+02 
285.937  6.30000000e+02 
285.865  6.34000000e+02 
285.793  6.05000000e+02 
285.721  6.91000000e+02 
285.650  7.58000000e+02 
285.578  6.87000000e+02 
285.506  7.20000000e+02 
285.435  7.82000000e+02 
285.363  8.24000000e+02 
285.291  7.96000000e+02 
285.219  8.12000000e+02 
285.148  8.50000000e+02 
285.076  8.37000000e+02 
285.004  8.97000000e+02 
284.932  8.32000000e+02 
284.861  8.32000000e+02 
284.789  8.45000000e+02 
284.717  8.28000000e+02 
284.646  8.21000000e+02 
284.574  8.43000000e+02 
284.502  7.73000000e+02 
284.430  7.65000000e+02 
284.359  7.52000000e+02 
284.287  7.50000000e+02 
284.215  6.78000000e+02 
284.143  7.14000000e+02 
284.072  6.84000000e+02 
284.000  6.48000000e+02 
283.928  5.82000000e+02 
283.857  5.73000000e+02 
283.785  5.26000000e+02 
283.713  5.09000000e+02 
283.641  4.64000000e+02 
283.570  4.85000000e+02 
283.498  4.63000000e+02 
283.426  4.43000000e+02 
283.354  4.53000000e+02 
283.283  4.57000000e+02 
283.211  4.17000000e+02 
283.139  3.99000000e+02 
283.068  3.59000000e+02 
282.996  4.15000000e+02 
282.924  3.90000000e+02 
282.852  3.95000000e+02 
282.781  3.91000000e+02 
282.709  3.68000000e+02 
282.637  4.06000000e+02 
282.565  3.44000000e+02 
282.494  4.17000000e+02 
282.422  3.39000000e+02 
282.350  3.84000000e+02 
282.279  3.74000000e+02 
282.207  3.42000000e+02 
282.135  3.78000000e+02 
282.063  3.53000000e+02 
281.992  3.40000000e+02 
281.920  3.32000000e+02 
281.848  3.61000000e+02 
281.776  3.68000000e+02 
281.705  3.60000000e+02 
281.633  3.64000000e+02 
281.561  3.32000000e+02 
281.490  3.47000000e+02 
281.418  3.69000000e+02 
281.346  3.59000000e+02 
281.274  3.72000000e+02 
281.203  3.59000000e+02 
281.131  3.39000000e+02 
281.059  3.67000000e+02 
280.987  3.60000000e+02 
280.916  3.53000000e+02 
280.844  3.98000000e+02 
280.772  3.87000000e+02 
280.701  3.75000000e+02 
280.629  3.66000000e+02 
280.557  3.62000000e+02 
280.485  3.31000000e+02 
280.414  3.72000000e+02 
280.342  3.87000000e+02 
280.270  3.58000000e+02 
280.198  3.62000000e+02 
280.127  3.69000000e+02 
280.055  3.19000000e+02 
279.983  3.46000000e+02 
279.912  3.55000000e+02 
279.840  3.70000000e+02 
279.768  3.54000000e+02 
279.696  3.48000000e+02 
279.625  3.41000000e+02 
279.553  3.72000000e+02 
279.481  3.47000000e+02 
279.409  3.66000000e+02 
279.338  3.63000000e+02 
279.266  3.52000000e+02 
279.194  3.47000000e+02 
279.123  3.56000000e+02 
279.051  3.26000000e+02 
[ Region 2 Curve ]
BEcenter= 284.000 
BEwidth= -9.898  
Excitation= 1486.600
Time_p_channel= 512.000 
Size= 139
288.949  7.59000000e+02 
288.877  7.33000000e+02 
288.806  7.64000000e+02 
288.734  7.21000000e+02 
288.662  7.00000000e+02 
288.591  7.31000000e+02 
288.519  7.10000000e+02 
288.447  7.35000000e+02 
288.375  7.86000000e+02 
288.304  7.64000000e+02 
288.232  7.63000000e+02 
288.160  8.06000000e+02 
288.088  7.69000000e+02 
288.017  7.38000000e+02 
287.945  7.43000000e+02 
287.873  8.01000000e+02 
287.802  7.67000000e+02 
287.730  7.57000000e+02 
287.658  8.27000000e+02 
287.586  8.17000000e+02 
287.515  8.11000000e+02 
287.443  8.29000000e+02 
287.371  8.32000000e+02 
287.299  8.27000000e+02 
287.228  8.40000000e+02 
287.156  7.87000000e+02 
287.084  8.67000000e+02 
287.013  8.69000000e+02 
286.941  9.27000000e+02 
286.869  8.85000000e+02 
286.797  9.22000000e+02 
286.726  9.96000000e+02 
286.654  9.49000000e+02 
286.582  9.68000000e+02 
286.510  9.82000000e+02 
286.439  1.06700000e+03 
286.367  1.08900000e+03 
286.295  1.04700000e+03 
286.224  1.09000000e+03 
286.152  1.18400000e+03 
286.080  1.18800000e+03 
286.008  1.25300000e+03 
285.937  1.24200000e+03 
285.865  1.37300000e+03 
285.793  1.42800000e+03 
285.721  1.34800000e+03 
285.650  1.41700000e+03 
285.578  1.49900000e+03 
285.506  1.42300000e+03 
285.435  1.53400000e+03 
285.363  1.56500000e+03 
285.291  1.59300000e+03 
285.219  1.61800000e+03 
285.148  1.65100000e+03 
285.076  1.70200000e+03 
285.004  1.49700000e+03 
284.932  1.60700000e+03 
284.861  1.59000000e+03 
284.789  1.61800000e+03 
284.717  1.58600000e+03 
284.646  1.51100000e+03 
284.574  1.46800000e+03 
284.502  1.39400000e+03 
284.430  1.26400000e+03 
284.359  1.20700000e+03 
284.287  1.09600000e+03 
284.215  1.16800000e+03 
284.143  1.05900000e+03 
284.072  1.00300000e+03 
284.000  9.16000000e+02 
283.928  9.28000000e+02 
283.857  9.15000000e+02 
283.785  8.27000000e+02 
283.713  7.88000000e+02 
283.641  7.69000000e+02 
283.570  7.49000000e+02 
283.498  7.97000000e+02 
283.426  7.49000000e+02 
283.354  7.12000000e+02 
283.283  6.93000000e+02 
283.211  7.44000000e+02 
283.139  7.00000000e+02 
283.068  6.73000000e+02 
282.996  7.32000000e+02 
282.924  7.38000000e+02 
282.852  6.88000000e+02 
282.781  7.10000000e+02 
282.709  7.41000000e+02 
282.637  6.63000000e+02 
282.565  6.95000000e+02 
282.494  6.56000000e+02 
282.422  7.00000000e+02 
282.350  6.65000000e+02 
282.279  7.23000000e+02 
282.207  6.46000000e+02 
282.135  6.71000000e+02 
282.063  6.86000000e+02 
281.992  7.08000000e+02 
281.920  6.99000000e+02 
281.848  6.77000000e+02 
281.776  6.89000000e+02 
281.705  6.96000000e+02 
281.633  7.35000000e+02 
281.561  6.33000000e+02 
281.490  6.88000000e+02 
281.418  6.21000000e+02 
281.346  7.12000000e+02 
281.274  6.63000000e+02 
281.203  7.25000000e+02 
281.131  6.90000000e+02 
281.059  6.96000000e+02 
280.987  6.93000000e+02 
280.916  6.65000000e+02 
280.844  6.45000000e+02 
280.772  6.68000000e+02 
280.701  6.52000000e+02 
280.629  7.04000000e+02 
280.557  6.71000000e+02 
280.485  6.11000000e+02 
280.414  6.15000000e+02 
280.342  6.69000000e+02 
280.270  6.26000000e+02 
280.198  7.05000000e+02 
280.127  6.53000000e+02 
280.055  6.97000000e+02 
279.983  6.51000000e+02 
279.912  6.87000000e+02 
279.840  6.85000000e+02 
279.768  6.37000000e+02 
279.696  6.80000000e+02 
279.625  6.88000000e+02 
279.553  6.75000000e+02 
279.481  6.76000000e+02 
279.409  6.79000000e+02 
279.338  6.46000000e+02 
279.266  6.64000000e+02 
279.194  6.90000000e+02 
279.123  6.72000000e+02 
279.051  6.70000000e+02 
[ Region 3 Curve ]
BEcenter= 284.000 
BEwidth= -9.898  
Excitation= 1486.600
Time_p_channel= 512.000 
Size= 139
288.949  1.02500000e+03 
288.877  1.09100000e+03 
288.806  1.07300000e+03 
288.734  1.11000000e+03 
288.662  1.08600000e+03 
288.591  1.05500000e+03 
288.519  1.03300000e+03 
288.447  1.14000000e+03 
288.375  1.09400000e+03 
288.304  1.07300000e+03 
288.232  1.11400000e+03 
288.160  1.04300000e+03 
288.088  1.03600000e+03 
288.017  1.16800000e+03 
287.945  1.05900000e+03 
287.873  1.10800000e+03 
287.802  1.13400000e+03 
287.730  1.13900000e+03 
287.658  1.15100000e+03 
287.586  1.23500000e+03 
287.515  1.22700000e+03 
287.443  1.19000000e+03 
287.371  1.20600000e+03 
287.299  1.26800000e+03 
287.228  1.18900000e+03 
287.156  1.21600000e+03 
287.084  1.22600000e+03 
287.013  1.26400000e+03 
286.941  1.32200000e+03 
286.869  1.38100000e+03 
286.797  1.40800000e+03 
286.726  1.38700000e+03 
286.654  1.43300000e+03 
286.582  1.42100000e+03 
286.510  1.46500000e+03 
286.439  1.53500000e+03 
286.367  1.55700000e+03 
286.295  1.55900000e+03 
286.224  1.62600000e+03 
286.152  1.66000000e+03 
286.080  1.86700000e+03 
286.008  1.81300000e+03 
285.937  1.81500000e+03 
285.865  1.94800000e+03 
285.793  1.96800000e+03 
285.721  1.98100000e+03 
285.650  2.19600000e+03 
285.578  2.13600000e+03 
285.506  2.23500000e+03 
285.435  2.23200000e+03 
285.363  2.25200000e+03 
285.291  2.27300000e+03 
285.219  2.25400000e+03 
285.148  2.22300000e+03 
285.076  2.23200000e+03 
285.004  2.25000000e+03 
284.932  2.15900000e+03 
284.861  2.19300000e+03 
284.789  1.95400000e+03 
284.717  2.00700000e+03 
284.646  1.91600000e+03 
284.574  1.90300000e+03 
284.502  1.79800000e+03 
284.430  1.66600000e+03 
284.359  1.63100000e+03 
284.287  1.46400000e+03 
284.215  1.43900000e+03 
284.143  1.31500000e+03 
284.072  1.32400000e+03 
284.000  1.25200000e+03 
283.928  1.22700000e+03 
283.857  1.19000000e+03 
283.785  1.09100000e+03 
283.713  1.14800000e+03 
283.641  1.11600000e+03 
283.570  1.12300000e+03 
283.498  1.09300000e+03 
283.426  1.06500000e+03 
283.354  1.03600000e+03 
283.283  1.06800000e+03 
283.211  1.06100000e+03 
283.139  1.02600000e+03 
283.068  1.00500000e+03 
282.996  1.04100000e+03 
282.924  1.01900000e+03 
282.852  1.08800000e+03 
282.781  9.95000000e+02 
282.709  1.02600000e+03 
282.637  1.00900000e+03 
282.565  1.03400000e+03 
282.494  1.03200000e+03 
282.422  1.06900000e+03 
282.350  9.90000000e+02 
282.279  9.86000000e+02 
282.207  1.03500000e+03 
282.135  9.84000000e+02 
282.063  9.64000000e+02 
281.992  1.00600000e+03 
281.920  9.85000000e+02 
281.848  9.48000000e+02 
281.776  1.02300000e+03 
281.705  1.01700000e+03 
281.633  9.36000000e+02 
281.561  1.01400000e+03 
281.490  9.67000000e+02 
281.418  9.61000000e+02 
281.346  9.59000000e+02 
281.274  9.76000000e+02 
281.203  9.48000000e+02 
281.131  9.58000000e+02 
281.059  9.72000000e+02 
280.987  9.35000000e+02 
280.916  9.41000000e+02 
280.844  9.81000000e+02 
280.772  9.47000000e+02 
280.701  9.55000000e+02 
280.629  9.63000000e+02 
280.557  9.46000000e+02 
280.485  9.82000000e+02 
280.414  9.47000000e+02 
280.342  1.00600000e+03 
280.270  9.75000000e+02 
280.198  9.38000000e+02 
280.127  9.77000000e+02 
280.055  1.02300000e+03 
279.983  9.97000000e+02 
279.912  9.56000000e+02 
279.840  1.01500000e+03 
279.768  9.86000000e+02 
279.696  9.51000000e+02 
279.625  9.63000000e+02 
279.553  9.81000000e+02 
279.481  9.32000000e+02 
279.409  9.21000000e+02 
279.338  9.64000000e+02 
279.266  9.94000000e+02 
279.194  9.48000000e+02 
279.123  9.92000000e+02 
279.051  9.35000000e+02 
[ Region 4 Curve ]
BEcenter= 284.000 
BEwidth= -9.898  
Excitation= 1486.600
Time_p_channel= 512.000 
Size= 139
288.949  1.32800000e+03 
288.877  1.39500000e+03 
288.806  1.30600000e+03 
288.734  1.34700000e+03 
288.662  1.27900000e+03 
288.591  1.38300000e+03 
288.519  1.37100000e+03 
288.447  1.33300000e+03 
288.375  1.33200000e+03 
288.304  1.36500000e+03 
288.232  1.33200000e+03 
288.160  1.33900000e+03 
288.088  1.37000000e+03 
288.017  1.39100000e+03 
287.945  1.32200000e+03 
287.873  1.47800000e+03 
287.802  1.45100000e+03 
287.730  1.41300000e+03 
287.658  1.36000000e+03 
287.586  1.48300000e+03 
287.515  1.49600000e+03 
287.443  1.54100000e+03 
287.371  1.55400000e+03 
287.299  1.61200000e+03 
287.228  1.62700000e+03 
287.156  1.61100000e+03 
287.084  1.66900000e+03 
287.013  1.64200000e+03 
286.941  1.75600000e+03 
286.869  1.75800000e+03 
286.797  1.81300000e+03 
286.726  1.88500000e+03 
286.654  1.82000000e+03 
286.582  1.85900000e+03 
286.510  1.93800000e+03 
286.439  1.95400000e+03 
286.367  2.04800000e+03 
286.295  2.02900000e+03 
286.224  2.13900000e+03 
286.152  2.20700000e+03 
286.080  2.10700000e+03 
286.008  2.23900000e+03 
285.937  2.32900000e+03 
285.865  2.28900000e+03 
285.793  2.47100000e+03 
285.721  2.48100000e+03 
285.650  2.48800000e+03 
285.578  2.51300000e+03 
285.506  2.61700000e+03 
285.435  2.56500000e+03 
285.363  2.62300000e+03 
285.291  2.63100000e+03 
285.219  2.67700000e+03 
285.148  2.53300000e+03 
285.076  2.58200000e+03 
285.004  2.51100000e+03 
284.932  2.47500000e+03 
284.861  2.40100000e+03 
284.789  2.33900000e+03 
284.717  2.30800000e+03 
284.646  2.30900000e+03 
284.574  2.08700000e+03 
284.502  1.93500000e+03 
284.430  1.88700000e+03 
284.359  1.84700000e+03 
284.287  1.72700000e+03 
284.215  1.66200000e+03 
284.143  1.54900000e+03 
284.072  1.55800000e+03 
284.000  1.58100000e+03 
283.928  1.43400000e+03 
283.857  1.37700000e+03 
283.785  1.39400000e+03 
283.713  1.32000000e+03 
283.641  1.32500000e+03 
283.570  1.29200000e+03 
283.498  1.31500000e+03 
283.426  1.19200000e+03 
283.354  1.29100000e+03 
283.283  1.25100000e+03 
283.211  1.23200000e+03 
283.139  1.24500000e+03 
283.068  1.25800000e+03 
282.996  1.20400000e+03 
282.924  1.22600000e+03 
282.852  1.23700000e+03 
282.781  1.18600000e+03 
282.709  1.19200000e+03 
282.637  1.27800000e+03 
282.565  1.25200000e+03 
282.494  1.21800000e+03 
282.422  1.24300000e+03 
282.350  1.21500000e+03 
282.279  1.21900000e+03 
282.207  1.24900000e+03 
282.135  1.20800000e+03 
282.063  1.24700000e+03 
281.992  1.20800000e+03 
281.920  1.16000000e+03 
281.848  1.20400000e+03 
281.776  1.22800000e+03 
281.705  1.28300000e+03 
281.633  1.19000000e+03 
281.561  1.21700000e+03 
281.490  1.24400000e+03 
281.418  1.18500000e+03 
281.346  1.23900000e+03 
281.274  1.26400000e+03 
281.203  1.24900000e+03 
281.131  1.18800000e+03 
281.059  1.18000000e+03 
280.987  1.15000000e+03 
280.916  1.19200000e+03 
280.844  1.24700000e+03 
280.772  1.25500000e+03 
280.701  1.13300000e+03 
280.629  1.20900000e+03 
280.557  1.20500000e+03 
280.485  1.24200000e+03 
280.414  1.21800000e+03 
280.342  1.22000000e+03 
280.270  1.22000000e+03 
280.198  1.20500000e+03 
280.127  1.18200000e+03 
280.055  1.21100000e+03 
279.983  1.24000000e+03 
279.912  1.19500000e+03 
279.840  1.13200000e+03 
279.768  1.17600000e+03 
279.696  1.21200000e+03 
279.625  1.17700000e+03 
279.553  1.15300000e+03 
279.481  1.23700000e+03 
279.409  1.21100000e+03 
279.338  1.23100000e+03 
279.266  1.19400000e+03 
279.194  1.27400000e+03 
279.123  1.15600000e+03 
279.051  1.21600000e+03 
[ Region 5 Curve ]
BEcenter= 284.000 
BEwidth= -9.898  
Excitation= 1486.600
Time_p_channel= 512.000 
Size= 139
288.949  1.55300000e+03 
288.877  1.47800000e+03 
288.806  1.57300000e+03 
288.734  1.55300000e+03 
288.662  1.52100000e+03 
288.591  1.59800000e+03 
288.519  1.50500000e+03 
288.447  1.61800000e+03 
288.375  1.52700000e+03 
288.304  1.60400000e+03 
288.232  1.51100000e+03 
288.160  1.54900000e+03 
288.088  1.60900000e+03 
288.017  1.51500000e+03 
287.945  1.63000000e+03 
287.873  1.62800000e+03 
287.802  1.64100000e+03 
287.730  1.62200000e+03 
287.658  1.63200000e+03 
287.586  1.69800000e+03 
287.515  1.60800000e+03 
287.443  1.76100000e+03 
287.371  1.74600000e+03 
287.299  1.76000000e+03 
287.228  1.73400000e+03 
287.156  1.79800000e+03 
287.084  1.82900000e+03 
287.013  1.92700000e+03 
286.941  1.96100000e+03 
286.869  1.89200000e+03 
286.797  1.91700000e+03 
286.726  1.90500000e+03 
286.654  2.02500000e+03 
286.582  2.09800000e+03 
286.510  2.08500000e+03 
286.439  2.06500000e+03 
286.367  2.30300000e+03 
286.295  2.19700000e+03 
286.224  2.20600000e+03 
286.152  2.38900000e+03 
286.080  2.41700000e+03 
286.008  2.54900000e+03 
285.937  2.52700000e+03 
285.865  2.66900000e+03 
285.793  2.65700000e+03 
285.721  2.67500000e+03 
285.650  2.76900000e+03 
285.578  2.97600000e+03 
285.506  2.87300000e+03 
285.435  2.87700000e+03 
285.363  3.00000000e+03 
285.291  3.04900000e+03 
285.219  3.08700000e+03 
285.148  3.00100000e+03 
285.076  2.96600000e+03 
285.004  3.09300000e+03 
284.932  2.98900000e+03 
284.861  2.93100000e+03 
284.789  2.76600000e+03 
284.717  2.67500000e+03 
284.646  2.74900000e+03 
284.574  2.61700000e+03 
284.502  2.59300000e+03 
284.430  2.33500000e+03 
284.359  2.34600000e+03 
284.287  2.20700000e+03 
284.215  2.17400000e+03 
284.143  2.08800000e+03 
284.072  2.00200000e+03 
284.000  1.91600000e+03 
283.928  1.88100000e+03 
283.857  1.86100000e+03 
283.785  1.81700000e+03 
283.713  1.68900000e+03 
283.641  1.61800000e+03 
283.570  1.64500000e+03 
283.498  1.55200000e+03 
283.426  1.64600000e+03 
283.354  1.62500000e+03 
283.283  1.55400000e+03 
283.211  1.51200000e+03 
283.139  1.55100000e+03 
283.068  1.44400000e+03 
282.996  1.46400000e+03 
282.924  1.52600000e+03 
282.852  1.55200000e+03 
282.781  1.45500000e+03 
282.709  1.46800000e+03 
282.637  1.51300000e+03 
282.565  1.46500000e+03 
282.494  1.45500000e+03 
282.422  1.45100000e+03 
282.350  1.39300000e+03 
282.279  1.47300000e+03 
282.207  1.39700000e+03 
282.135  1.44800000e+03 
282.063  1.42500000e+03 
281.992  1.52000000e+03 
281.920  1.45300000e+03 
281.848  1.43400000e+03 
281.776  1.44900000e+03 
281.705  1.48700000e+03 
281.633  1.43400000e+03 
281.561  1.43600000e+03 
281.490  1.42800000e+03 
281.418  1.47100000e+03 
281.346  1.39700000e+03 
281.274  1.44400000e+03 
281.203  1.43400000e+03 
281.131  1.42700000e+03 
281.059  1.43100000e+03 
280.987  1.43400000e+03 
280.916  1.40200000e+03 
280.844  1.34100000e+03 
280.772  1.34100000e+03 
280.701  1.35800000e+03 
280.629  1.45800000e+03 
280.557  1.39900000e+03 
280.485  1.39500000e+03 
280.414  1.45100000e+03 
280.342  1.45300000e+03 
280.270  1.40200000e+03 
280.198  1.41900000e+03 
280.127  1.44600000e+03 
280.055  1.37100000e+03 
279.983  1.47600000e+03 
279.912  1.42200000e+03 
279.840  1.48600000e+03 
279.768  1.38000000e+03 
279.696  1.43600000e+03 
279.625  1.35900000e+03 
279.553  1.44900000e+03 
279.481  1.43200000e+03 
279.409  1.38500000e+03 
279.338  1.41400000e+03 
279.266  1.42200000e+03 
279.194  1.42700000e+03 
279.123  1.38900000e+03 
279.051  1.45400000e+03 
[ Region 6 Curve ]
BEcenter= 284.000 
BEwidth= -9.898  
Excitation= 1486.600
Time_p_channel= 512.000 
Size= 139
288.949  1.80100000e+03 
288.877  1.80300000e+03 
288.806  1.77000000e+03 
288.734  1.75500000e+03 
288.662  1.69900000e+03 
288.591  1.78500000e+03 
288.519  1.75600000e+03 
288.447  1.76400000e+03 
288.375  1.83200000e+03 
288.304  1.73000000e+03 
288.232  1.81700000e+03 
288.160  1.84600000e+03 
288.088  1.84500000e+03 
288.017  1.83400000e+03 
287.945  1.87300000e+03 
287.873  1.82200000e+03 
287.802  1.87800000e+03 
287.730  1.88100000e+03 
287.658  1.87900000e+03 
287.586  2.03000000e+03 
287.515  1.93000000e+03 
287.443  2.10900000e+03 
287.371  1.91300000e+03 
287.299  2.01300000e+03 
287.228  2.15600000e+03 
287.156  2.17800000e+03 
287.084  2.22000000e+03 
287.013  2.15100000e+03 
286.941  2.26200000e+03 
286.869  2.27900000e+03 
286.797  2.24700000e+03 
286.726  2.33900000e+03 
286.654  2.35300000e+03 
286.582  2.44600000e+03 
286.510  2.52900000e+03 
286.439  2.54100000e+03 
286.367  2.59700000e+03 
286.295  2.71300000e+03 
286.224  2.78600000e+03 
286.152  2.71500000e+03 
286.080  2.81100000e+03 
286.008  2.98400000e+03 
285.937  2.89800000e+03 
285.865  2.96200000e+03 
285.793  3.10800000e+03 
285.721  3.17300000e+03 
285.650  3.05300000e+03 
285.578  3.23300000e+03 
285.506  3.35300000e+03 
285.435  3.22600000e+03 
285.363  3.24500000e+03 
285.291  3.35300000e+03 
285.219  3.29000000e+03 
285.148  3.29700000e+03 
285.076  3.20800000e+03 
285.004  3.20800000e+03 
284.932  3.15800000e+03 
284.861  3.06600000e+03 
284.789  3.03000000e+03 
284.717  2.99000000e+03 
284.646  2.86600000e+03 
284.574  2.80100000e+03 
284.502  2.71700000e+03 
284.430  2.59800000e+03 
284.359  2.48100000e+03 
284.287  2.41000000e+03 
284.215  2.33000000e+03 
284.143  2.18000000e+03 
284.072  2.07300000e+03 
284.000  2.17400000e+03 
283.928  2.07100000e+03 
283.857  2.00700000e+03 
283.785  2.01600000e+03 
283.713  1.86800000e+03 
283.641  1.87900000e+03 
283.570  1.81500000e+03 
283.498  1.80600000e+03 
283.426  1.77200000e+03 
283.354  1.76300000e+03 
283.283  1.70800000e+03 
283.211  1.70600000e+03 
283.139  1.72000000e+03 
283.068  1.71300000e+03 
282.996  1.68100000e+03 
282.924  1.71700000e+03 
282.852  1.68700000e+03 
282.781  1.67100000e+03 
282.709  1.64300000e+03 
282.637  1.63700000e+03 
282.565  1.65100000e+03 
282.494  1.63400000e+03 
282.422  1.67000000e+03 
282.350  1.59100000e+03 
282.279  1.69100000e+03 
282.207  1.68600000e+03 
282.135  1.77900000e+03 
282.063  1.67800000e+03 
281.992  1.59200000e+03 
281.920  1.63600000e+03 
281.848  1.58600000e+03 
281.776  1.57900000e+03 
281.705  1.64300000e+03 
281.633  1.64100000e+03 
281.561  1.63600000e+03 
281.490  1.63100000e+03 
281.418  1.66500000e+03 
281.346  1.64100000e+03 
281.274  1.62100000e+03 
281.203  1.59400000e+03 
281.131  1.65800000e+03 
281.059  1.58900000e+03 
280.987  1.59100000e+03 
280.916  1.68600000e+03 
280.844  1.64200000e+03 
280.772  1.62100000e+03 
280.701  1.58000000e+03 
280.629  1.61300000e+03 
280.557  1.64500000e+03 
280.485  1.63500000e+03 
280.414  1.68600000e+03 
280.342  1.63000000e+03 
280.270  1.69000000e+03 
280.198  1.63400000e+03 
280.127  1.64500000e+03 
280.055  1.68700000e+03 
279.983  1.65700000e+03 
279.912  1.68900000e+03 
279.840  1.61300000e+03 
279.768  1.59500000e+03 
279.696  1.60100000e+03 
279.625  1.67500000e+03 
279.553  1.65300000e+03 
279.481  1.66400000e+03 
279.409  1.65900000e+03 
279.338  1.63800000e+03 
279.266  1.60600000e+03 
279.194  1.64500000e+03 
279.123  1.60500000e+03 
279.051  1.61800000e+03 
[ Region 7 Curve ]
BEcenter= 284.000 
BEwidth= -9.898  
Excitation= 1486.600
Time_p_channel= 512.000 
Size= 139
288.949  1.94800000e+03 
288.877  1.93800000e+03 
288.806  2.00700000e+03 
288.734  2.02700000e+03 
288.662  1.92400000e+03 
288.591  1.96400000e+03 
288.519  2.07800000e+03 
288.447  1.91600000e+03 
288.375  2.01900000e+03 
288.304  1.93300000e+03 
288.232  2.03900000e+03 
288.160  1.94800000e+03 
288.088  2.04300000e+03 
288.017  2.10900000e+03 
287.945  2.09100000e+03 
287.873  2.07600000e+03 
287.802  2.06100000e+03 
287.730  2.11900000e+03 
287.658  2.07900000e+03 
287.586  2.11800000e+03 
287.515  2.23200000e+03 
287.443  2.19400000e+03 
287.371  2.25700000e+03 
287.299  2.28200000e+03 
287.228  2.25700000e+03 
287.156  2.34300000e+03 
287.084  2.35300000e+03 
287.013  2.40000000e+03 
286.941  2.44000000e+03 
286.869  2.46400000e+03 
286.797  2.53400000e+03 
286.726  2.58700000e+03 
286.654  2.62300000e+03 
286.582  2.63400000e+03 
286.510  2.72700000e+03 
286.439  2.83700000e+03 
286.367  2.91500000e+03 
286.295  2.91300000e+03 
286.224  3.00800000e+03 
286.152  2.89200000e+03 
286.080  3.07100000e+03 
286.008  3.16800000e+03 
285.937  3.27400000e+03 
285.865  3.33800000e+03 
285.793  3.28200000e+03 
285.721  3.42500000e+03 
285.650  3.52700000e+03 
285.578  3.47800000e+03 
285.506  3.57500000e+03 
285.435  3.54700000e+03 
285.363  3.58300000e+03 
285.291  3.58700000e+03 
285.219  3.43000000e+03 
285.148  3.61000000e+03 
285.076  3.50900000e+03 
285.004  3.52900000e+03 
284.932  3.45000000e+03 
284.861  3.35000000e+03 
284.789  3.31800000e+03 
284.717  3.22100000e+03 
284.646  3.22300000e+03 
284.574  3.07800000e+03 
284.502  2.93900000e+03 
284.430  2.84900000e+03 
284.359  2.83300000e+03 
284.287  2.66200000e+03 
284.215  2.58500000e+03 
284.143  2.44400000e+03 
284.072  2.42200000e+03 
284.000  2.42000000e+03 
283.928  2.25300000e+03 
283.857  2.23000000e+03 
283.785  2.11400000e+03 
283.713  2.06700000e+03 
283.641  2.08700000e+03 
283.570  2.04500000e+03 
283.498  1.98700000e+03 
283.426  1.96300000e+03 
283.354  1.90500000e+03 
283.283  1.91600000e+03 
283.211  1.87200000e+03 
283.139  1.88300000e+03 
283.068  1.89800000e+03 
282.996  1.83200000e+03 
282.924  1.86200000e+03 
282.852  1.91700000e+03 
282.781  1.80700000e+03 
282.709  1.80700000e+03 
282.637  1.82900000e+03 
282.565  1.78200000e+03 
282.494  1.86200000e+03 
282.422  1.79200000e+03 
282.350  1.82000000e+03 
282.279  1.83300000e+03 
282.207  1.74900000e+03 
282.135  1.82400000e+03 
282.063  1.84900000e+03 
281.992  1.90700000e+03 
281.920  1.84000000e+03 
281.848  1.82800000e+03 
281.776  1.81100000e+03 
281.705  1.78900000e+03 
281.633  1.81200000e+03 
281.561  1.76200000e+03 
281.490  1.90600000e+03 
281.418  1.83200000e+03 
281.346  1.83400000e+03 
281.274  1.85300000e+03 
281.203  1.83400000e+03 
281.131  1.83500000e+03 
281.059  1.84300000e+03 
280.987  1.85800000e+03 
280.916  1.79700000e+03 
280.844  1.83700000e+03 
280.772  1.80000000e+03 
280.701  1.87300000e+03 
280.629  1.80400000e+03 
280.557  1.77900000e+03 
280.485  1.85000000e+03 
280.414  1.82100000e+03 
280.342  1.85800000e+03 
280.270  1.82100000e+03 
280.198  1.81700000e+03 
280.127  1.83600000e+03 
280.055  1.78100000e+03 
279.983  1.78300000e+03 
279.912  1.82100000e+03 
279.840  1.94800000e+03 
279.768  1.87500000e+03 
279.696  1.79700000e+03 
279.625  1.82400000e+03 
279.553  1.71300000e+03 
279.481  1.84200000e+03 
279.409  1.70600000e+03 
279.338  1.79800000e+03 
279.266  1.79100000e+03 
279.194  1.77100000e+03 
279.123  1.82100000e+03 
279.051  1.75900000e+03 
[ Region 8 Curve ]
BEcenter= 284.000 
BEwidth= -9.898  
Excitation= 1486.600
Time_p_channel= 512.000 
Size= 139
288.949  2.15900000e+03 
288.877  2.18600000e+03 
288.806  2.14500000e+03 
288.734  2.21100000e+03 
288.662  2.10400000e+03 
288.591  2.10600000e+03 
288.519  2.16900000e+03 
288.447  2.16100000e+03 
288.375  2.22900000e+03 
288.304  2.17800000e+03 
288.232  2.22300000e+03 
288.160  2.19200000e+03 
288.088  2.15900000e+03 
288.017  2.23600000e+03 
287.945  2.23300000e+03 
287.873  2.37100000e+03 
287.802  2.23300000e+03 
287.730  2.36600000e+03 
287.658  2.30200000e+03 
287.586  2.39100000e+03 
287.515  2.38800000e+03 
287.443  2.48500000e+03 
287.371  2.51500000e+03 
287.299  2.49300000e+03 
287.228  2.49600000e+03 
287.156  2.56700000e+03 
287.084  2.59100000e+03 
287.013  2.63600000e+03 
286.941  2.62400000e+03 
286.869  2.68700000e+03 
286.797  2.66300000e+03 
286.726  2.92900000e+03 
286.654  2.85000000e+03 
286.582  2.99400000e+03 
286.510  3.00000000e+03 
286.439  3.00000000e+03 
286.367  3.11000000e+03 
286.295  3.11200000e+03 
286.224  3.15700000e+03 
286.152  3.21200000e+03 
286.080  3.33200000e+03 
286.008  3.35400000e+03 
285.937  3.48000000e+03 
285.865  3.57200000e+03 
285.793  3.58800000e+03 
285.721  3.71500000e+03 
285.650  3.70100000e+03 
285.578  3.83700000e+03 
285.506  3.75200000e+03 
285.435  3.90500000e+03 
285.363  3.88700000e+03 
285.291  3.76800000e+03 
285.219  3.93700000e+03 
285.148  3.86100000e+03 
285.076  3.80300000e+03 
285.004  3.82800000e+03 
284.932  3.70700000e+03 
284.861  3.70300000e+03 
284.789  3.60400000e+03 
284.717  3.57800000e+03 
284.646  3.46300000e+03 
284.574  3.37300000e+03 
284.502  3.36000000e+03 
284.430  3.11000000e+03 
284.359  3.19000000e+03 
284.287  3.12100000e+03 
284.215  3.04100000e+03 
284.143  2.87600000e+03 
284.072  2.84900000e+03 
284.000  2.79200000e+03 
283.928  2.66600000e+03 
283.857  2.59300000e+03 
283.785  2.48000000e+03 
283.713  2.35600000e+03 
283.641  2.42300000e+03 
283.570  2.29700000e+03 
283.498  2.33400000e+03 
283.426  2.30600000e+03 
283.354  2.31600000e+03 
283.283  2.20700000e+03 
283.211  2.11600000e+03 
283.139  2.18900000e+03 
283.068  2.16500000e+03 
282.996  2.11400000e+03 
282.924  2.07400000e+03 
282.852  2.09300000e+03 
282.781  2.04600000e+03 
282.709  2.03600000e+03 
282.637  2.05000000e+03 
282.565  2.00900000e+03 
282.494  2.11700000e+03 
282.422  2.00400000e+03 
282.350  2.06000000e+03 
282.279  2.03400000e+03 
282.207  1.99400000e+03 
282.135  1.99100000e+03 
282.063  2.04700000e+03 
281.992  2.10300000e+03 
281.920  2.07800000e+03 
281.848  1.98400000e+03 
281.776  2.06500000e+03 
281.705  1.95700000e+03 
281.633  2.02200000e+03 
281.561  2.05300000e+03 
281.490  2.03000000e+03 
281.418  2.03800000e+03 
281.346  1.97200000e+03 
281.274  2.07200000e+03 
281.203  2.08200000e+03 
281.131  2.10800000e+03 
281.059  2.10100000e+03 
280.987  1.98700000e+03 
280.916  2.05700000e+03 
280.844  1.98700000e+03 
280.772  2.11500000e+03 
280.701  1.93000000e+03 
280.629  1.99400000e+03 
280.557  2.07300000e+03 
280.485  2.02100000e+03 
280.414  1.97200000e+03 
280.342  2.01500000e+03 
280.270  1.99700000e+03 
280.198  2.04000000e+03 
280.127  1.96300000e+03 
280.055  2.04500000e+03 
279.983  2.09500000e+03 
279.912  2.02100000e+03 
279.840  2.03100000e+03 
279.768  2.05600000e+03 
279.696  2.01100000e+03 
279.625  2.01500000e+03 
279.553  2.06200000e+03 
279.481  1.98600000e+03 
279.409  1.94900000e+03 
279.338  2.07300000e+03 
279.266  1.97700000e+03 
279.194  2.04600000e+03 
279.123  1.99300000e+03 
279.051  2.02100000e+03 
[ Region 9 Curve ]
BEcenter= 284.000 
BEwidth= -9.898  
Excitation= 1486.600
Time_p_channel= 512.000 
Size= 139
288.949  2.23300000e+03 
288.877  2.18400000e+03 
288.806  2.13100000e+03 
288.734  2.18600000e+03 
288.662  2.13900000e+03 
288.591  2.27600000e+03 
288.519  2.18100000e+03 
288.447  2.22300000e+03 
288.375  2.28200000e+03 
288.304  2.21300000e+03 
288.232  2.22800000e+03 
288.160  2.21900000e+03 
288.088  2.16500000e+03 
288.017  2.32200000e+03 
287.945  2.19400000e+03 
287.873  2.30200000e+03 
287.802  2.34400000e+03 
287.730  2.22400000e+03 
287.658  2.38000000e+03 
287.586  2.42900000e+03 
287.515  2.32500000e+03 
287.443  2.38500000e+03 
287.371  2.36400000e+03 
287.299  2.46500000e+03 
287.228  2.46400000e+03 
287.156  2.52000000e+03 
287.084  2.59300000e+03 
287.013  2.47600000e+03 
286.941  2.60600000e+03 
286.869  2.59900000e+03 
286.797  2.66300000e+03 
286.726  2.71900000e+03 
286.654  2.69400000e+03 
286.582  2.81400000e+03 
286.510  2.77400000e+03 
286.439  2.87700000e+03 
286.367  2.90400000e+03 
286.295  2.90400000e+03 
286.224  2.99800000e+03 
286.152  3.14900000e+03 
286.080  3.16100000e+03 
286.008  3.21400000e+03 
285.937  3.28800000e+03 
285.865  3.41500000e+03 
285.793  3.40000000e+03 
285.721  3.43300000e+03 
285.650  3.50200000e+03 
285.578  3.65400000e+03 
285.506  3.56900000e+03 
285.435  3.68100000e+03 
285.363  3.60600000e+03 
285.291  3.66400000e+03 
285.219  3.69200000e+03 
285.148  3.75100000e+03 
285.076  3.73100000e+03 
285.004  3.77300000e+03 
284.932  3.67200000e+03 
284.861  3.66100000e+03 
284.789  3.82200000e+03 
284.717  3.77100000e+03 
284.646  3.71100000e+03 
284.574  3.61700000e+03 
284.502  3.62000000e+03 
284.430  3.43600000e+03 
284.359  3.43400000e+03 
284.287  3.36300000e+03 
284.215  3.26400000e+03 
284.143  3.22300000e+03 
284.072  3.12600000e+03 
284.000  3.13300000e+03 
283.928  3.00200000e+03 
283.857  2.90500000e+03 
283.785  2.95300000e+03 
283.713  2.81000000e+03 
283.641  2.77200000e+03 
283.570  2.63900000e+03 
283.498  2.62200000e+03 
283.426  2.55100000e+03 
283.354  2.42000000e+03 
283.283  2.47000000e+03 
283.211  2.46200000e+03 
283.139  2.34200000e+03 
283.068  2.31000000e+03 
282.996  2.27800000e+03 
282.924  2.22100000e+03 
282.852  2.22500000e+03 
282.781  2.22700000e+03 
282.709  2.22000000e+03 
282.637  2.18700000e+03 
282.565  2.11300000e+03 
282.494  2.13500000e+03 
282.422  2.03500000e+03 
282.350  2.12400000e+03 
282.279  2.07600000e+03 
282.207  2.05400000e+03 
282.135  2.12300000e+03 
282.063  2.04600000e+03 
281.992  2.06700000e+03 
281.920  2.03100000e+03 
281.848  2.03500000e+03 
281.776  2.11000000e+03 
281.705  1.99700000e+03 
281.633  2.02900000e+03 
281.561  2.06400000e+03 
281.490  2.05100000e+03 
281.418  2.07400000e+03 
281.346  2.07900000e+03 
281.274  2.07500000e+03 
281.203  2.06900000e+03 
281.131  2.07400000e+03 
281.059  2.06900000e+03 
280.987  2.10200000e+03 
280.916  2.02400000e+03 
280.844  2.12200000e+03 
280.772  2.12300000e+03 
280.701  2.03100000e+03 
280.629  2.03200000e+03 
280.557  2.11400000e+03 
280.485  2.09100000e+03 
280.414  2.00900000e+03 
280.342  2.09000000e+03 
280.270  2.00800000e+03 
280.198  2.05700000e+03 
280.127  2.10300000e+03 
280.055  2.06600000e+03 
279.983  2.09500000e+03 
279.912  2.06100000e+03 
279.840  2.03700000e+03 
279.768  1.99800000e+03 
279.696  2.14800000e+03 
279.625  2.12600000e+03 
279.553  2.07900000e+03 
279.481  2.01100000e+03 
279.409  2.02200000e+03 
279.338  2.05200000e+03 
279.266  2.06700000e+03 
279.194  2.03500000e+03 
279.123  1.99700000e+03 
279.051  2.04900000e+03 
