[ Experiment Parameters ]
Experiment Description= Au4f, mono=7, rod=-2, takeoff=-40,-30...40 
Number_of_Regions_in_Experiment= 9 

Original_File_name= c:\alexesca\data\97071701.xps 
Instrument= ESCA-West
Date= 07-17-1997
Time=  17:15:06

[ Region 1 Parameters ]
Region_Description = au 4f dithered                     
BEcenter(eV) = 85.000000
BEwidth(eV) = 8.000000
BEstep(eV) = 0.107813
Dwell_Time(sec) = 0.500000
N_o_scans = 2  
N_o_Channels = 74  
Excitation_Energy = 0.000000  
Scan_mode = 0  (DITHERED)

[ Region 2 Parameters ]
Region_Description = au 4f dithered                     
BEcenter(eV) = 85.000000
BEwidth(eV) = 8.000000
BEstep(eV) = 0.107813
Dwell_Time(sec) = 0.500000
N_o_scans = 2  
N_o_Channels = 74  
Excitation_Energy = 0.000000  
Scan_mode = 0  (DITHERED)

[ Region 3 Parameters ]
Region_Description = au 4f dithered                     
BEcenter(eV) = 85.000000
BEwidth(eV) = 8.000000
BEstep(eV) = 0.107813
Dwell_Time(sec) = 0.500000
N_o_scans = 2  
N_o_Channels = 74  
Excitation_Energy = 0.000000  
Scan_mode = 0  (DITHERED)

[ Region 4 Parameters ]
Region_Description = au 4f dithered                     
BEcenter(eV) = 85.000000
BEwidth(eV) = 8.000000
BEstep(eV) = 0.107813
Dwell_Time(sec) = 0.500000
N_o_scans = 2  
N_o_Channels = 74  
Excitation_Energy = 0.000000  
Scan_mode = 0  (DITHERED)

[ Region 5 Parameters ]
Region_Description = au 4f dithered                     
BEcenter(eV) = 85.000000
BEwidth(eV) = 8.000000
BEstep(eV) = 0.107813
Dwell_Time(sec) = 0.500000
N_o_scans = 2  
N_o_Channels = 74  
Excitation_Energy = 0.000000  
Scan_mode = 0  (DITHERED)

[ Region 6 Parameters ]
Region_Description = au 4f dithered                     
BEcenter(eV) = 85.000000
BEwidth(eV) = 8.000000
BEstep(eV) = 0.107813
Dwell_Time(sec) = 0.500000
N_o_scans = 2  
N_o_Channels = 74  
Excitation_Energy = 0.000000  
Scan_mode = 0  (DITHERED)

[ Region 7 Parameters ]
Region_Description = au 4f dithered                     
BEcenter(eV) = 85.000000
BEwidth(eV) = 8.000000
BEstep(eV) = 0.107813
Dwell_Time(sec) = 0.500000
N_o_scans = 2  
N_o_Channels = 74  
Excitation_Energy = 0.000000  
Scan_mode = 0  (DITHERED)

[ Region 8 Parameters ]
Region_Description = au 4f dithered                     
BEcenter(eV) = 85.000000
BEwidth(eV) = 8.000000
BEstep(eV) = 0.107813
Dwell_Time(sec) = 0.500000
N_o_scans = 2  
N_o_Channels = 74  
Excitation_Energy = 0.000000  
Scan_mode = 0  (DITHERED)

[ Region 9 Parameters ]
Region_Description = au 4f dithered                     
BEcenter(eV) = 85.000000
BEwidth(eV) = 8.000000
BEstep(eV) = 0.107813
Dwell_Time(sec) = 0.500000
N_o_scans = 2  
N_o_Channels = 74  
Excitation_Energy = 0.000000  
Scan_mode = 0  (DITHERED)

[ Region 1 Curve ]
BEcenter= 85.000  
BEwidth= -7.838  
Excitation= 1486.600
Time_p_channel= 768.000 
Size= 74
88.919   5.60000000e+01 
88.812   7.00000000e+01 
88.704   5.60000000e+01 
88.597   7.60000000e+01 
88.489   7.20000000e+01 
88.382   7.70000000e+01 
88.275   6.80000000e+01 
88.167   7.70000000e+01 
88.060   9.20000000e+01 
87.953   1.11000000e+02 
87.845   1.07000000e+02 
87.738   1.33000000e+02 
87.631   1.34000000e+02 
87.523   1.59000000e+02 
87.416   1.93000000e+02 
87.308   2.00000000e+02 
87.201   2.30000000e+02 
87.094   2.70000000e+02 
86.986   2.83000000e+02 
86.879   3.23000000e+02 
86.772   2.95000000e+02 
86.664   2.07000000e+02 
86.557   2.14000000e+02 
86.449   1.74000000e+02 
86.342   1.27000000e+02 
86.235   1.07000000e+02 
86.127   1.09000000e+02 
86.020   8.00000000e+01 
85.913   7.60000000e+01 
85.805   7.70000000e+01 
85.698   6.50000000e+01 
85.591   5.80000000e+01 
85.483   7.20000000e+01 
85.376   7.10000000e+01 
85.268   6.40000000e+01 
85.161   8.50000000e+01 
85.054   5.80000000e+01 
84.946   6.20000000e+01 
84.839   6.60000000e+01 
84.732   9.80000000e+01 
84.624   8.90000000e+01 
84.517   1.12000000e+02 
84.409   1.20000000e+02 
84.302   1.08000000e+02 
84.195   1.10000000e+02 
84.087   1.38000000e+02 
83.980   1.34000000e+02 
83.873   2.02000000e+02 
83.765   1.85000000e+02 
83.658   2.05000000e+02 
83.551   2.41000000e+02 
83.443   3.13000000e+02 
83.336   2.91000000e+02 
83.228   3.14000000e+02 
83.121   2.89000000e+02 
83.014   2.36000000e+02 
82.906   2.20000000e+02 
82.799   1.31000000e+02 
82.692   1.15000000e+02 
82.584   7.90000000e+01 
82.477   7.30000000e+01 
82.369   7.90000000e+01 
82.262   6.50000000e+01 
82.155   5.50000000e+01 
82.047   4.00000000e+01 
81.940   4.00000000e+01 
81.833   4.10000000e+01 
81.725   3.50000000e+01 
81.618   5.00000000e+01 
81.511   3.80000000e+01 
81.403   4.40000000e+01 
81.296   2.10000000e+01 
81.188   3.00000000e+01 
81.081   4.30000000e+01 
[ Region 2 Curve ]
BEcenter= 85.000  
BEwidth= -7.838  
Excitation= 1486.600
Time_p_channel= 768.000 
Size= 74
88.919   1.92000000e+02 
88.812   1.77000000e+02 
88.704   1.88000000e+02 
88.597   2.06000000e+02 
88.489   2.20000000e+02 
88.382   2.16000000e+02 
88.275   2.48000000e+02 
88.167   2.48000000e+02 
88.060   2.90000000e+02 
87.953   3.07000000e+02 
87.845   3.50000000e+02 
87.738   3.84000000e+02 
87.631   4.03000000e+02 
87.523   4.83000000e+02 
87.416   5.91000000e+02 
87.308   6.88000000e+02 
87.201   8.03000000e+02 
87.094   8.14000000e+02 
86.986   7.85000000e+02 
86.879   7.15000000e+02 
86.772   6.48000000e+02 
86.664   5.62000000e+02 
86.557   3.97000000e+02 
86.449   3.70000000e+02 
86.342   2.62000000e+02 
86.235   2.45000000e+02 
86.127   2.46000000e+02 
86.020   1.85000000e+02 
85.913   2.10000000e+02 
85.805   1.99000000e+02 
85.698   1.83000000e+02 
85.591   1.78000000e+02 
85.483   1.82000000e+02 
85.376   1.96000000e+02 
85.268   1.99000000e+02 
85.161   1.94000000e+02 
85.054   2.08000000e+02 
84.946   2.23000000e+02 
84.839   2.91000000e+02 
84.732   2.58000000e+02 
84.624   3.27000000e+02 
84.517   3.36000000e+02 
84.409   4.03000000e+02 
84.302   4.34000000e+02 
84.195   4.54000000e+02 
84.087   5.28000000e+02 
83.980   5.45000000e+02 
83.873   5.78000000e+02 
83.765   7.00000000e+02 
83.658   8.62000000e+02 
83.551   9.27000000e+02 
83.443   8.84000000e+02 
83.336   8.94000000e+02 
83.228   7.71000000e+02 
83.121   6.36000000e+02 
83.014   5.15000000e+02 
82.906   3.94000000e+02 
82.799   3.04000000e+02 
82.692   2.34000000e+02 
82.584   2.11000000e+02 
82.477   1.92000000e+02 
82.369   1.46000000e+02 
82.262   1.67000000e+02 
82.155   1.11000000e+02 
82.047   1.29000000e+02 
81.940   1.10000000e+02 
81.833   9.00000000e+01 
81.725   1.27000000e+02 
81.618   1.00000000e+02 
81.511   1.08000000e+02 
81.403   9.00000000e+01 
81.296   8.80000000e+01 
81.188   1.03000000e+02 
81.081   9.40000000e+01 
[ Region 3 Curve ]
BEcenter= 85.000  
BEwidth= -7.838  
Excitation= 1486.600
Time_p_channel= 768.000 
Size= 74
88.919   4.42000000e+02 
88.812   4.20000000e+02 
88.704   4.20000000e+02 
88.597   4.51000000e+02 
88.489   4.20000000e+02 
88.382   5.23000000e+02 
88.275   5.76000000e+02 
88.167   5.81000000e+02 
88.060   6.34000000e+02 
87.953   7.47000000e+02 
87.845   8.26000000e+02 
87.738   9.07000000e+02 
87.631   1.09700000e+03 
87.523   1.26400000e+03 
87.416   1.48500000e+03 
87.308   1.59300000e+03 
87.201   1.75500000e+03 
87.094   1.74700000e+03 
86.986   1.58900000e+03 
86.879   1.36400000e+03 
86.772   1.13700000e+03 
86.664   8.96000000e+02 
86.557   6.81000000e+02 
86.449   6.05000000e+02 
86.342   5.05000000e+02 
86.235   4.43000000e+02 
86.127   4.47000000e+02 
86.020   4.20000000e+02 
85.913   4.28000000e+02 
85.805   3.79000000e+02 
85.698   4.11000000e+02 
85.591   3.48000000e+02 
85.483   4.16000000e+02 
85.376   4.25000000e+02 
85.268   4.39000000e+02 
85.161   4.69000000e+02 
85.054   4.97000000e+02 
84.946   5.85000000e+02 
84.839   6.04000000e+02 
84.732   6.89000000e+02 
84.624   7.55000000e+02 
84.517   8.58000000e+02 
84.409   9.25000000e+02 
84.302   1.02400000e+03 
84.195   1.07200000e+03 
84.087   1.26200000e+03 
83.980   1.38600000e+03 
83.873   1.61100000e+03 
83.765   1.77600000e+03 
83.658   1.98600000e+03 
83.551   1.93800000e+03 
83.443   1.97800000e+03 
83.336   1.73300000e+03 
83.228   1.43900000e+03 
83.121   1.04500000e+03 
83.014   8.46000000e+02 
82.906   6.35000000e+02 
82.799   4.95000000e+02 
82.692   4.10000000e+02 
82.584   3.08000000e+02 
82.477   2.93000000e+02 
82.369   2.78000000e+02 
82.262   2.53000000e+02 
82.155   2.23000000e+02 
82.047   2.24000000e+02 
81.940   1.87000000e+02 
81.833   1.96000000e+02 
81.725   1.85000000e+02 
81.618   2.14000000e+02 
81.511   1.90000000e+02 
81.403   1.88000000e+02 
81.296   1.59000000e+02 
81.188   1.67000000e+02 
81.081   1.67000000e+02 
[ Region 4 Curve ]
BEcenter= 85.000  
BEwidth= -7.838  
Excitation= 1486.600
Time_p_channel= 768.000 
Size= 74
88.919   8.01000000e+02 
88.812   8.09000000e+02 
88.704   8.37000000e+02 
88.597   8.79000000e+02 
88.489   9.85000000e+02 
88.382   1.11600000e+03 
88.275   1.21900000e+03 
88.167   1.37200000e+03 
88.060   1.52300000e+03 
87.953   1.79200000e+03 
87.845   2.08000000e+03 
87.738   2.41300000e+03 
87.631   2.75900000e+03 
87.523   2.96000000e+03 
87.416   2.98800000e+03 
87.308   3.15000000e+03 
87.201   2.76300000e+03 
87.094   2.37100000e+03 
86.986   1.89800000e+03 
86.879   1.49000000e+03 
86.772   1.22800000e+03 
86.664   1.01200000e+03 
86.557   8.56000000e+02 
86.449   7.57000000e+02 
86.342   7.55000000e+02 
86.235   6.76000000e+02 
86.127   6.78000000e+02 
86.020   6.76000000e+02 
85.913   6.73000000e+02 
85.805   6.45000000e+02 
85.698   6.89000000e+02 
85.591   7.36000000e+02 
85.483   7.39000000e+02 
85.376   8.09000000e+02 
85.268   8.66000000e+02 
85.161   9.74000000e+02 
85.054   1.17000000e+03 
84.946   1.21200000e+03 
84.839   1.41900000e+03 
84.732   1.54600000e+03 
84.624   1.67100000e+03 
84.517   1.81400000e+03 
84.409   1.92600000e+03 
84.302   2.23500000e+03 
84.195   2.48400000e+03 
84.087   2.74800000e+03 
83.980   3.08500000e+03 
83.873   3.31200000e+03 
83.765   3.51500000e+03 
83.658   3.49500000e+03 
83.551   3.19400000e+03 
83.443   2.50100000e+03 
83.336   1.87900000e+03 
83.228   1.43700000e+03 
83.121   1.08300000e+03 
83.014   8.22000000e+02 
82.906   6.63000000e+02 
82.799   5.73000000e+02 
82.692   5.13000000e+02 
82.584   4.16000000e+02 
82.477   4.02000000e+02 
82.369   4.10000000e+02 
82.262   3.25000000e+02 
82.155   3.72000000e+02 
82.047   3.29000000e+02 
81.940   3.24000000e+02 
81.833   3.15000000e+02 
81.725   2.79000000e+02 
81.618   3.02000000e+02 
81.511   2.94000000e+02 
81.403   2.65000000e+02 
81.296   2.61000000e+02 
81.188   2.53000000e+02 
81.081   2.75000000e+02 
[ Region 5 Curve ]
BEcenter= 85.000  
BEwidth= -7.838  
Excitation= 1486.600
Time_p_channel= 768.000 
Size= 74
88.919   1.16000000e+03 
88.812   1.27000000e+03 
88.704   1.33600000e+03 
88.597   1.48400000e+03 
88.489   1.65900000e+03 
88.382   1.95400000e+03 
88.275   2.16300000e+03 
88.167   2.56500000e+03 
88.060   2.95900000e+03 
87.953   3.30300000e+03 
87.845   3.68600000e+03 
87.738   4.24100000e+03 
87.631   4.27900000e+03 
87.523   4.19000000e+03 
87.416   3.86700000e+03 
87.308   3.27700000e+03 
87.201   2.73100000e+03 
87.094   2.26200000e+03 
86.986   1.81800000e+03 
86.879   1.53200000e+03 
86.772   1.29900000e+03 
86.664   1.12900000e+03 
86.557   9.99000000e+02 
86.449   9.71000000e+02 
86.342   9.38000000e+02 
86.235   8.59000000e+02 
86.127   9.58000000e+02 
86.020   8.73000000e+02 
85.913   9.10000000e+02 
85.805   9.37000000e+02 
85.698   1.01400000e+03 
85.591   1.11200000e+03 
85.483   1.29000000e+03 
85.376   1.36000000e+03 
85.268   1.47700000e+03 
85.161   1.65800000e+03 
85.054   1.92200000e+03 
84.946   2.07700000e+03 
84.839   2.38800000e+03 
84.732   2.61000000e+03 
84.624   2.86500000e+03 
84.517   3.01600000e+03 
84.409   3.39200000e+03 
84.302   3.86800000e+03 
84.195   4.26100000e+03 
84.087   4.55100000e+03 
83.980   4.68100000e+03 
83.873   4.53400000e+03 
83.765   4.27600000e+03 
83.658   3.55700000e+03 
83.551   2.84800000e+03 
83.443   2.18900000e+03 
83.336   1.57400000e+03 
83.228   1.27800000e+03 
83.121   1.03500000e+03 
83.014   7.99000000e+02 
82.906   7.29000000e+02 
82.799   6.22000000e+02 
82.692   5.52000000e+02 
82.584   5.20000000e+02 
82.477   5.26000000e+02 
82.369   4.50000000e+02 
82.262   4.48000000e+02 
82.155   4.15000000e+02 
82.047   3.89000000e+02 
81.940   3.93000000e+02 
81.833   4.21000000e+02 
81.725   3.63000000e+02 
81.618   3.60000000e+02 
81.511   3.27000000e+02 
81.403   3.52000000e+02 
81.296   3.36000000e+02 
81.188   3.48000000e+02 
81.081   3.07000000e+02 
[ Region 6 Curve ]
BEcenter= 85.000  
BEwidth= -7.838  
Excitation= 1486.600
Time_p_channel= 768.000 
Size= 74
88.919   1.46400000e+03 
88.812   1.58200000e+03 
88.704   1.75500000e+03 
88.597   1.99500000e+03 
88.489   2.19900000e+03 
88.382   2.72400000e+03 
88.275   2.96900000e+03 
88.167   3.52300000e+03 
88.060   4.04300000e+03 
87.953   4.45700000e+03 
87.845   4.77100000e+03 
87.738   4.86000000e+03 
87.631   4.58700000e+03 
87.523   4.14000000e+03 
87.416   3.51700000e+03 
87.308   2.85800000e+03 
87.201   2.40200000e+03 
87.094   1.93200000e+03 
86.986   1.59300000e+03 
86.879   1.42500000e+03 
86.772   1.26200000e+03 
86.664   1.15600000e+03 
86.557   1.09900000e+03 
86.449   1.05600000e+03 
86.342   1.02500000e+03 
86.235   1.00700000e+03 
86.127   1.02900000e+03 
86.020   1.09500000e+03 
85.913   1.09700000e+03 
85.805   1.15300000e+03 
85.698   1.31800000e+03 
85.591   1.38100000e+03 
85.483   1.57500000e+03 
85.376   1.73300000e+03 
85.268   1.93900000e+03 
85.161   2.18500000e+03 
85.054   2.36600000e+03 
84.946   2.62400000e+03 
84.839   2.92300000e+03 
84.732   3.22600000e+03 
84.624   3.67900000e+03 
84.517   4.10700000e+03 
84.409   4.52400000e+03 
84.302   4.91100000e+03 
84.195   5.27400000e+03 
84.087   5.33200000e+03 
83.980   4.99100000e+03 
83.873   4.33200000e+03 
83.765   3.53500000e+03 
83.658   2.91700000e+03 
83.551   2.16500000e+03 
83.443   1.71100000e+03 
83.336   1.38400000e+03 
83.228   1.07900000e+03 
83.121   9.78000000e+02 
83.014   7.94000000e+02 
82.906   7.37000000e+02 
82.799   6.90000000e+02 
82.692   5.75000000e+02 
82.584   6.04000000e+02 
82.477   5.38000000e+02 
82.369   4.88000000e+02 
82.262   4.65000000e+02 
82.155   4.55000000e+02 
82.047   4.23000000e+02 
81.940   3.85000000e+02 
81.833   4.26000000e+02 
81.725   3.87000000e+02 
81.618   4.08000000e+02 
81.511   4.12000000e+02 
81.403   3.54000000e+02 
81.296   3.25000000e+02 
81.188   3.48000000e+02 
81.081   3.36000000e+02 
[ Region 7 Curve ]
BEcenter= 85.000  
BEwidth= -7.838  
Excitation= 1486.600
Time_p_channel= 768.000 
Size= 74
88.919   1.53700000e+03 
88.812   1.61600000e+03 
88.704   1.90500000e+03 
88.597   2.09300000e+03 
88.489   2.54800000e+03 
88.382   2.89400000e+03 
88.275   3.35500000e+03 
88.167   3.72300000e+03 
88.060   3.92000000e+03 
87.953   4.00200000e+03 
87.845   3.86100000e+03 
87.738   3.45800000e+03 
87.631   3.09200000e+03 
87.523   2.64500000e+03 
87.416   2.27500000e+03 
87.308   1.85400000e+03 
87.201   1.57900000e+03 
87.094   1.33000000e+03 
86.986   1.19900000e+03 
86.879   1.05900000e+03 
86.772   1.01400000e+03 
86.664   9.73000000e+02 
86.557   7.98000000e+02 
86.449   9.00000000e+02 
86.342   8.74000000e+02 
86.235   8.72000000e+02 
86.127   9.68000000e+02 
86.020   9.68000000e+02 
85.913   1.11000000e+03 
85.805   1.13400000e+03 
85.698   1.27500000e+03 
85.591   1.38300000e+03 
85.483   1.59700000e+03 
85.376   1.72900000e+03 
85.268   1.96000000e+03 
85.161   2.16700000e+03 
85.054   2.26100000e+03 
84.946   2.57600000e+03 
84.839   2.95300000e+03 
84.732   3.40400000e+03 
84.624   3.61100000e+03 
84.517   4.14600000e+03 
84.409   4.32800000e+03 
84.302   4.37500000e+03 
84.195   4.06200000e+03 
84.087   3.77400000e+03 
83.980   3.17600000e+03 
83.873   2.70900000e+03 
83.765   2.15100000e+03 
83.658   1.68400000e+03 
83.551   1.46900000e+03 
83.443   1.12900000e+03 
83.336   1.00800000e+03 
83.228   8.14000000e+02 
83.121   6.70000000e+02 
83.014   6.01000000e+02 
82.906   5.82000000e+02 
82.799   5.01000000e+02 
82.692   5.11000000e+02 
82.584   4.51000000e+02 
82.477   4.32000000e+02 
82.369   3.84000000e+02 
82.262   3.29000000e+02 
82.155   3.89000000e+02 
82.047   3.44000000e+02 
81.940   3.43000000e+02 
81.833   2.91000000e+02 
81.725   3.19000000e+02 
81.618   2.90000000e+02 
81.511   3.12000000e+02 
81.403   2.59000000e+02 
81.296   2.82000000e+02 
81.188   2.82000000e+02 
81.081   2.67000000e+02 
[ Region 8 Curve ]
BEcenter= 85.000  
BEwidth= -7.838  
Excitation= 1486.600
Time_p_channel= 768.000 
Size= 74
88.919   1.14700000e+03 
88.812   1.34900000e+03 
88.704   1.56600000e+03 
88.597   1.73800000e+03 
88.489   1.98700000e+03 
88.382   2.18900000e+03 
88.275   2.55000000e+03 
88.167   2.60800000e+03 
88.060   2.61900000e+03 
87.953   2.38500000e+03 
87.845   2.22700000e+03 
87.738   2.06000000e+03 
87.631   1.69300000e+03 
87.523   1.51700000e+03 
87.416   1.35700000e+03 
87.308   1.13300000e+03 
87.201   9.82000000e+02 
87.094   9.37000000e+02 
86.986   8.11000000e+02 
86.879   7.96000000e+02 
86.772   7.17000000e+02 
86.664   7.17000000e+02 
86.557   6.70000000e+02 
86.449   5.96000000e+02 
86.342   6.89000000e+02 
86.235   7.26000000e+02 
86.127   7.35000000e+02 
86.020   7.52000000e+02 
85.913   8.40000000e+02 
85.805   9.25000000e+02 
85.698   1.01000000e+03 
85.591   1.09800000e+03 
85.483   1.15600000e+03 
85.376   1.29700000e+03 
85.268   1.47300000e+03 
85.161   1.60200000e+03 
85.054   1.81100000e+03 
84.946   2.05400000e+03 
84.839   2.32800000e+03 
84.732   2.51600000e+03 
84.624   2.77800000e+03 
84.517   2.91600000e+03 
84.409   2.87200000e+03 
84.302   2.65800000e+03 
84.195   2.45100000e+03 
84.087   2.18800000e+03 
83.980   1.83100000e+03 
83.873   1.49500000e+03 
83.765   1.26100000e+03 
83.658   1.11900000e+03 
83.551   9.78000000e+02 
83.443   7.89000000e+02 
83.336   6.92000000e+02 
83.228   5.63000000e+02 
83.121   5.35000000e+02 
83.014   4.82000000e+02 
82.906   4.01000000e+02 
82.799   3.97000000e+02 
82.692   3.99000000e+02 
82.584   3.32000000e+02 
82.477   2.98000000e+02 
82.369   2.80000000e+02 
82.262   2.94000000e+02 
82.155   2.67000000e+02 
82.047   2.36000000e+02 
81.940   2.19000000e+02 
81.833   2.27000000e+02 
81.725   2.01000000e+02 
81.618   2.21000000e+02 
81.511   2.12000000e+02 
81.403   1.68000000e+02 
81.296   2.18000000e+02 
81.188   1.86000000e+02 
81.081   1.85000000e+02 
[ Region 9 Curve ]
BEcenter= 85.000  
BEwidth= -7.838  
Excitation= 1486.600
Time_p_channel= 768.000 
Size= 74
88.919   8.32000000e+02 
88.812   9.95000000e+02 
88.704   1.09800000e+03 
88.597   1.22000000e+03 
88.489   1.37400000e+03 
88.382   1.50900000e+03 
88.275   1.50300000e+03 
88.167   1.48200000e+03 
88.060   1.45200000e+03 
87.953   1.30000000e+03 
87.845   1.17700000e+03 
87.738   1.07800000e+03 
87.631   1.01500000e+03 
87.523   9.45000000e+02 
87.416   8.25000000e+02 
87.308   7.36000000e+02 
87.201   6.92000000e+02 
87.094   5.84000000e+02 
86.986   6.06000000e+02 
86.879   5.53000000e+02 
86.772   5.22000000e+02 
86.664   5.12000000e+02 
86.557   4.75000000e+02 
86.449   4.89000000e+02 
86.342   4.33000000e+02 
86.235   4.63000000e+02 
86.127   4.74000000e+02 
86.020   4.87000000e+02 
85.913   5.05000000e+02 
85.805   5.77000000e+02 
85.698   6.09000000e+02 
85.591   6.38000000e+02 
85.483   7.63000000e+02 
85.376   7.94000000e+02 
85.268   9.07000000e+02 
85.161   1.12900000e+03 
85.054   1.32500000e+03 
84.946   1.31700000e+03 
84.839   1.47900000e+03 
84.732   1.55900000e+03 
84.624   1.60000000e+03 
84.517   1.56400000e+03 
84.409   1.45700000e+03 
84.302   1.30800000e+03 
84.195   1.26400000e+03 
84.087   1.21700000e+03 
83.980   1.02300000e+03 
83.873   9.71000000e+02 
83.765   8.08000000e+02 
83.658   7.23000000e+02 
83.551   7.13000000e+02 
83.443   6.23000000e+02 
83.336   5.68000000e+02 
83.228   4.97000000e+02 
83.121   4.30000000e+02 
83.014   4.30000000e+02 
82.906   3.22000000e+02 
82.799   3.16000000e+02 
82.692   2.89000000e+02 
82.584   2.50000000e+02 
82.477   2.26000000e+02 
82.369   2.28000000e+02 
82.262   2.17000000e+02 
82.155   2.11000000e+02 
82.047   2.01000000e+02 
81.940   1.83000000e+02 
81.833   1.83000000e+02 
81.725   1.59000000e+02 
81.618   1.60000000e+02 
81.511   1.34000000e+02 
81.403   1.60000000e+02 
81.296   1.54000000e+02 
81.188   1.36000000e+02 
81.081   1.50000000e+02 
