[ Experiment Parameters ]
Experiment Description= <none> 
Number_of_Regions_in_Experiment= 2 

Original_File_name= c:\alexesca\data\97073104.xps 
Instrument= ESCA-West
Date= 07-30-1997
Time=  20:09:14

[ Region 1 Parameters ]
Region_Description = O for XPD                          
BEcenter(eV) = 532.000000
BEwidth(eV) = 14.000000
BEstep(eV) = 0.035938
Dwell_Time(sec) = 0.250000
N_o_scans = 1  
N_o_Channels = 390  
Excitation_Energy = -0.000000  
Scan_mode = 0  (DITHERED)

[ Region 2 Parameters ]
Region_Description = Mn for XPD                         
BEcenter(eV) = 643.000000
BEwidth(eV) = 12.000000
BEstep(eV) = 0.035938
Dwell_Time(sec) = 0.250000
N_o_scans = 1  
N_o_Channels = 334  
Excitation_Energy = -0.000000  
Scan_mode = 0  (DITHERED)

[ Region 1 Curve ]
BEcenter= 532.000 
BEwidth= -13.975 
Excitation= 1486.600
Time_p_channel= 64.000  
Size= 390
538.987  5.20000000e+01 
538.951  3.30000000e+01 
538.915  2.40000000e+01 
538.880  4.90000000e+01 
538.844  3.90000000e+01 
538.808  4.70000000e+01 
538.772  4.40000000e+01 
538.736  3.40000000e+01 
538.700  3.10000000e+01 
538.664  3.80000000e+01 
538.628  5.10000000e+01 
538.592  3.50000000e+01 
538.556  3.80000000e+01 
538.520  2.90000000e+01 
538.484  3.60000000e+01 
538.448  2.40000000e+01 
538.413  3.80000000e+01 
538.377  4.60000000e+01 
538.341  4.30000000e+01 
538.305  3.10000000e+01 
538.269  4.40000000e+01 
538.233  3.20000000e+01 
538.197  3.90000000e+01 
538.161  3.00000000e+01 
538.125  3.80000000e+01 
538.089  4.00000000e+01 
538.053  3.70000000e+01 
538.017  3.60000000e+01 
537.981  4.00000000e+01 
537.945  3.00000000e+01 
537.910  3.70000000e+01 
537.874  3.90000000e+01 
537.838  2.90000000e+01 
537.802  4.40000000e+01 
537.766  4.60000000e+01 
537.730  3.40000000e+01 
537.694  4.90000000e+01 
537.658  4.40000000e+01 
537.622  4.10000000e+01 
537.586  4.10000000e+01 
537.550  2.70000000e+01 
537.514  3.60000000e+01 
537.478  3.80000000e+01 
537.443  3.60000000e+01 
537.407  4.70000000e+01 
537.371  3.80000000e+01 
537.335  4.80000000e+01 
537.299  4.00000000e+01 
537.263  2.90000000e+01 
537.227  4.40000000e+01 
537.191  4.90000000e+01 
537.155  3.80000000e+01 
537.119  4.00000000e+01 
537.083  4.00000000e+01 
537.047  4.10000000e+01 
537.011  4.80000000e+01 
536.976  3.60000000e+01 
536.940  3.80000000e+01 
536.904  4.50000000e+01 
536.868  2.10000000e+01 
536.832  3.60000000e+01 
536.796  4.10000000e+01 
536.760  4.90000000e+01 
536.724  3.80000000e+01 
536.688  4.10000000e+01 
536.652  2.90000000e+01 
536.616  4.00000000e+01 
536.580  3.30000000e+01 
536.544  4.80000000e+01 
536.509  4.90000000e+01 
536.473  3.40000000e+01 
536.437  3.10000000e+01 
536.401  4.00000000e+01 
536.365  3.80000000e+01 
536.329  4.80000000e+01 
536.293  4.50000000e+01 
536.257  3.40000000e+01 
536.221  4.90000000e+01 
536.185  4.10000000e+01 
536.149  4.30000000e+01 
536.113  3.90000000e+01 
536.077  5.30000000e+01 
536.042  4.50000000e+01 
536.006  3.60000000e+01 
535.970  4.00000000e+01 
535.934  5.30000000e+01 
535.898  4.70000000e+01 
535.862  5.40000000e+01 
535.826  4.80000000e+01 
535.790  5.30000000e+01 
535.754  5.00000000e+01 
535.718  4.80000000e+01 
535.682  6.00000000e+01 
535.646  4.50000000e+01 
535.610  5.80000000e+01 
535.574  5.30000000e+01 
535.539  5.90000000e+01 
535.503  4.90000000e+01 
535.467  5.80000000e+01 
535.431  3.90000000e+01 
535.395  5.90000000e+01 
535.359  5.40000000e+01 
535.323  5.00000000e+01 
535.287  6.10000000e+01 
535.251  6.60000000e+01 
535.215  6.80000000e+01 
535.179  6.20000000e+01 
535.143  6.60000000e+01 
535.107  5.80000000e+01 
535.072  8.20000000e+01 
535.036  6.50000000e+01 
535.000  8.70000000e+01 
534.964  7.20000000e+01 
534.928  8.00000000e+01 
534.892  7.40000000e+01 
534.856  8.20000000e+01 
534.820  7.80000000e+01 
534.784  7.20000000e+01 
534.748  7.60000000e+01 
534.712  7.40000000e+01 
534.676  6.70000000e+01 
534.640  8.00000000e+01 
534.605  7.90000000e+01 
534.569  8.50000000e+01 
534.533  8.20000000e+01 
534.497  9.00000000e+01 
534.461  9.10000000e+01 
534.425  9.70000000e+01 
534.389  1.00000000e+02 
534.353  1.00000000e+02 
534.317  1.18000000e+02 
534.281  9.40000000e+01 
534.245  1.10000000e+02 
534.209  1.30000000e+02 
534.173  1.30000000e+02 
534.138  9.10000000e+01 
534.102  1.13000000e+02 
534.066  1.12000000e+02 
534.030  1.26000000e+02 
533.994  1.31000000e+02 
533.958  1.40000000e+02 
533.922  1.23000000e+02 
533.886  1.63000000e+02 
533.850  1.65000000e+02 
533.814  1.46000000e+02 
533.778  1.54000000e+02 
533.742  1.44000000e+02 
533.706  1.44000000e+02 
533.670  1.55000000e+02 
533.635  1.43000000e+02 
533.599  1.71000000e+02 
533.563  1.55000000e+02 
533.527  1.39000000e+02 
533.491  1.61000000e+02 
533.455  1.66000000e+02 
533.419  1.42000000e+02 
533.383  1.53000000e+02 
533.347  1.37000000e+02 
533.311  1.65000000e+02 
533.275  1.60000000e+02 
533.239  1.31000000e+02 
533.203  1.67000000e+02 
533.168  1.40000000e+02 
533.132  1.34000000e+02 
533.096  1.62000000e+02 
533.060  1.22000000e+02 
533.024  1.47000000e+02 
532.988  1.27000000e+02 
532.952  1.24000000e+02 
532.916  1.23000000e+02 
532.880  1.11000000e+02 
532.844  1.10000000e+02 
532.808  1.12000000e+02 
532.772  1.18000000e+02 
532.736  1.33000000e+02 
532.701  1.00000000e+02 
532.665  1.23000000e+02 
532.629  1.16000000e+02 
532.593  9.90000000e+01 
532.557  9.30000000e+01 
532.521  1.17000000e+02 
532.485  1.12000000e+02 
532.449  1.11000000e+02 
532.413  1.05000000e+02 
532.377  9.30000000e+01 
532.341  9.40000000e+01 
532.305  9.90000000e+01 
532.269  6.90000000e+01 
532.234  6.70000000e+01 
532.198  7.50000000e+01 
532.162  8.10000000e+01 
532.126  8.50000000e+01 
532.090  8.50000000e+01 
532.054  7.90000000e+01 
532.018  6.10000000e+01 
531.982  6.40000000e+01 
531.946  8.00000000e+01 
531.910  5.60000000e+01 
531.874  5.70000000e+01 
531.838  6.30000000e+01 
531.802  4.80000000e+01 
531.766  7.10000000e+01 
531.731  6.50000000e+01 
531.695  7.30000000e+01 
531.659  5.50000000e+01 
531.623  5.10000000e+01 
531.587  6.40000000e+01 
531.551  5.40000000e+01 
531.515  6.40000000e+01 
531.479  4.60000000e+01 
531.443  4.90000000e+01 
531.407  6.40000000e+01 
531.371  3.60000000e+01 
531.335  4.00000000e+01 
531.299  5.70000000e+01 
531.264  6.30000000e+01 
531.228  4.40000000e+01 
531.192  4.60000000e+01 
531.156  3.40000000e+01 
531.120  4.00000000e+01 
531.084  5.00000000e+01 
531.048  4.70000000e+01 
531.012  4.90000000e+01 
530.976  5.00000000e+01 
530.940  4.50000000e+01 
530.904  3.30000000e+01 
530.868  3.90000000e+01 
530.832  4.50000000e+01 
530.797  4.30000000e+01 
530.761  3.70000000e+01 
530.725  3.80000000e+01 
530.689  3.40000000e+01 
530.653  3.00000000e+01 
530.617  3.80000000e+01 
530.581  4.10000000e+01 
530.545  4.70000000e+01 
530.509  4.10000000e+01 
530.473  3.40000000e+01 
530.437  3.50000000e+01 
530.401  2.90000000e+01 
530.365  4.60000000e+01 
530.330  4.10000000e+01 
530.294  4.10000000e+01 
530.258  3.80000000e+01 
530.222  3.80000000e+01 
530.186  3.50000000e+01 
530.150  4.40000000e+01 
530.114  4.60000000e+01 
530.078  3.30000000e+01 
530.042  3.80000000e+01 
530.006  3.80000000e+01 
529.970  3.50000000e+01 
529.934  4.10000000e+01 
529.898  4.10000000e+01 
529.862  3.10000000e+01 
529.827  3.70000000e+01 
529.791  4.00000000e+01 
529.755  4.00000000e+01 
529.719  3.90000000e+01 
529.683  2.60000000e+01 
529.647  3.30000000e+01 
529.611  3.40000000e+01 
529.575  3.40000000e+01 
529.539  4.20000000e+01 
529.503  3.80000000e+01 
529.467  3.90000000e+01 
529.431  3.50000000e+01 
529.395  2.50000000e+01 
529.360  3.50000000e+01 
529.324  3.80000000e+01 
529.288  4.60000000e+01 
529.252  3.30000000e+01 
529.216  3.70000000e+01 
529.180  3.00000000e+01 
529.144  2.70000000e+01 
529.108  3.30000000e+01 
529.072  3.10000000e+01 
529.036  3.50000000e+01 
529.000  2.40000000e+01 
528.964  3.10000000e+01 
528.928  3.70000000e+01 
528.893  2.60000000e+01 
528.857  3.30000000e+01 
528.821  3.40000000e+01 
528.785  2.70000000e+01 
528.749  3.00000000e+01 
528.713  3.50000000e+01 
528.677  3.30000000e+01 
528.641  3.90000000e+01 
528.605  3.20000000e+01 
528.569  3.80000000e+01 
528.533  2.80000000e+01 
528.497  2.90000000e+01 
528.461  3.40000000e+01 
528.426  3.80000000e+01 
528.390  3.40000000e+01 
528.354  2.60000000e+01 
528.318  3.00000000e+01 
528.282  4.30000000e+01 
528.246  3.00000000e+01 
528.210  3.20000000e+01 
528.174  2.90000000e+01 
528.138  3.20000000e+01 
528.102  2.60000000e+01 
528.066  3.70000000e+01 
528.030  3.60000000e+01 
527.994  2.80000000e+01 
527.958  3.80000000e+01 
527.923  3.90000000e+01 
527.887  4.80000000e+01 
527.851  2.90000000e+01 
527.815  3.70000000e+01 
527.779  4.40000000e+01 
527.743  3.50000000e+01 
527.707  3.00000000e+01 
527.671  2.40000000e+01 
527.635  3.40000000e+01 
527.599  3.60000000e+01 
527.563  3.20000000e+01 
527.527  3.50000000e+01 
527.491  2.80000000e+01 
527.456  3.90000000e+01 
527.420  4.50000000e+01 
527.384  2.80000000e+01 
527.348  3.90000000e+01 
527.312  3.10000000e+01 
527.276  4.70000000e+01 
527.240  2.90000000e+01 
527.204  4.10000000e+01 
527.168  3.70000000e+01 
527.132  3.80000000e+01 
527.096  4.50000000e+01 
527.060  3.40000000e+01 
527.024  2.80000000e+01 
526.989  2.90000000e+01 
526.953  2.70000000e+01 
526.917  3.80000000e+01 
526.881  2.80000000e+01 
526.845  4.00000000e+01 
526.809  3.50000000e+01 
526.773  2.30000000e+01 
526.737  4.10000000e+01 
526.701  3.00000000e+01 
526.665  3.10000000e+01 
526.629  3.50000000e+01 
526.593  3.30000000e+01 
526.557  4.50000000e+01 
526.522  4.10000000e+01 
526.486  3.60000000e+01 
526.450  3.30000000e+01 
526.414  2.10000000e+01 
526.378  3.10000000e+01 
526.342  3.00000000e+01 
526.306  3.00000000e+01 
526.270  4.00000000e+01 
526.234  3.30000000e+01 
526.198  3.30000000e+01 
526.162  2.60000000e+01 
526.126  2.80000000e+01 
526.090  4.10000000e+01 
526.055  3.30000000e+01 
526.019  3.00000000e+01 
525.983  3.20000000e+01 
525.947  3.30000000e+01 
525.911  4.50000000e+01 
525.875  3.30000000e+01 
525.839  3.50000000e+01 
525.803  3.60000000e+01 
525.767  3.60000000e+01 
525.731  3.40000000e+01 
525.695  2.90000000e+01 
525.659  3.50000000e+01 
525.623  3.00000000e+01 
525.587  3.00000000e+01 
525.552  3.40000000e+01 
525.516  3.10000000e+01 
525.480  4.70000000e+01 
525.444  3.30000000e+01 
525.408  4.00000000e+01 
525.372  2.90000000e+01 
525.336  2.60000000e+01 
525.300  3.70000000e+01 
525.264  3.20000000e+01 
525.228  3.20000000e+01 
525.192  4.00000000e+01 
525.156  3.80000000e+01 
525.120  4.10000000e+01 
525.085  4.50000000e+01 
525.049  2.60000000e+01 
525.013  4.40000000e+01 
[ Region 2 Curve ]
BEcenter= 643.000 
BEwidth= -11.959 
Excitation= 1486.600
Time_p_channel= 64.000  
Size= 334
648.979  6.70000000e+01 
648.944  7.00000000e+01 
648.908  5.00000000e+01 
648.872  6.10000000e+01 
648.836  5.80000000e+01 
648.800  6.30000000e+01 
648.764  5.10000000e+01 
648.728  6.70000000e+01 
648.692  5.70000000e+01 
648.656  7.60000000e+01 
648.620  4.90000000e+01 
648.584  5.90000000e+01 
648.549  6.90000000e+01 
648.513  5.10000000e+01 
648.477  7.20000000e+01 
648.441  6.70000000e+01 
648.405  6.30000000e+01 
648.369  6.60000000e+01 
648.333  6.40000000e+01 
648.297  7.70000000e+01 
648.261  6.20000000e+01 
648.225  6.50000000e+01 
648.189  6.10000000e+01 
648.153  6.10000000e+01 
648.118  7.30000000e+01 
648.082  7.80000000e+01 
648.046  6.20000000e+01 
648.010  6.90000000e+01 
647.974  5.60000000e+01 
647.938  4.00000000e+01 
647.902  6.70000000e+01 
647.866  5.80000000e+01 
647.830  4.60000000e+01 
647.794  6.30000000e+01 
647.758  6.80000000e+01 
647.723  7.50000000e+01 
647.687  6.70000000e+01 
647.651  5.30000000e+01 
647.615  6.40000000e+01 
647.579  7.10000000e+01 
647.543  6.40000000e+01 
647.507  5.50000000e+01 
647.471  4.60000000e+01 
647.435  6.40000000e+01 
647.399  7.30000000e+01 
647.363  6.30000000e+01 
647.328  5.70000000e+01 
647.292  6.00000000e+01 
647.256  5.80000000e+01 
647.220  5.80000000e+01 
647.184  5.50000000e+01 
647.148  5.50000000e+01 
647.112  7.30000000e+01 
647.076  8.20000000e+01 
647.040  6.40000000e+01 
647.004  6.50000000e+01 
646.968  5.90000000e+01 
646.932  5.00000000e+01 
646.897  5.20000000e+01 
646.861  5.70000000e+01 
646.825  4.50000000e+01 
646.789  6.20000000e+01 
646.753  5.50000000e+01 
646.717  6.00000000e+01 
646.681  6.10000000e+01 
646.645  5.50000000e+01 
646.609  6.20000000e+01 
646.573  4.70000000e+01 
646.537  6.10000000e+01 
646.502  8.00000000e+01 
646.466  6.20000000e+01 
646.430  6.40000000e+01 
646.394  6.80000000e+01 
646.358  7.20000000e+01 
646.322  5.70000000e+01 
646.286  6.10000000e+01 
646.250  7.30000000e+01 
646.214  6.30000000e+01 
646.178  5.60000000e+01 
646.142  5.70000000e+01 
646.106  4.70000000e+01 
646.071  7.00000000e+01 
646.035  6.40000000e+01 
645.999  6.00000000e+01 
645.963  6.20000000e+01 
645.927  4.90000000e+01 
645.891  5.20000000e+01 
645.855  6.80000000e+01 
645.819  7.20000000e+01 
645.783  6.30000000e+01 
645.747  5.80000000e+01 
645.711  6.00000000e+01 
645.676  5.70000000e+01 
645.640  4.80000000e+01 
645.604  4.90000000e+01 
645.568  7.00000000e+01 
645.532  6.40000000e+01 
645.496  6.10000000e+01 
645.460  6.70000000e+01 
645.424  4.80000000e+01 
645.388  6.10000000e+01 
645.352  7.70000000e+01 
645.316  5.30000000e+01 
645.280  5.70000000e+01 
645.245  6.50000000e+01 
645.209  6.00000000e+01 
645.173  6.10000000e+01 
645.137  5.50000000e+01 
645.101  6.50000000e+01 
645.065  6.20000000e+01 
645.029  6.20000000e+01 
644.993  5.90000000e+01 
644.957  6.80000000e+01 
644.921  8.20000000e+01 
644.885  5.80000000e+01 
644.850  4.70000000e+01 
644.814  6.60000000e+01 
644.778  6.60000000e+01 
644.742  7.00000000e+01 
644.706  6.30000000e+01 
644.670  7.50000000e+01 
644.634  5.60000000e+01 
644.598  8.10000000e+01 
644.562  5.10000000e+01 
644.526  7.40000000e+01 
644.490  7.20000000e+01 
644.454  6.60000000e+01 
644.419  6.80000000e+01 
644.383  6.30000000e+01 
644.347  4.90000000e+01 
644.311  7.20000000e+01 
644.275  7.60000000e+01 
644.239  6.20000000e+01 
644.203  6.50000000e+01 
644.167  7.70000000e+01 
644.131  6.50000000e+01 
644.095  7.60000000e+01 
644.059  5.60000000e+01 
644.024  6.20000000e+01 
643.988  6.00000000e+01 
643.952  6.40000000e+01 
643.916  5.80000000e+01 
643.880  6.60000000e+01 
643.844  6.40000000e+01 
643.808  7.90000000e+01 
643.772  4.90000000e+01 
643.736  6.70000000e+01 
643.700  7.20000000e+01 
643.664  6.40000000e+01 
643.628  6.40000000e+01 
643.593  6.20000000e+01 
643.557  6.80000000e+01 
643.521  6.10000000e+01 
643.485  7.20000000e+01 
643.449  6.40000000e+01 
643.413  6.90000000e+01 
643.377  6.20000000e+01 
643.341  5.90000000e+01 
643.305  5.40000000e+01 
643.269  4.90000000e+01 
643.233  6.40000000e+01 
643.198  8.60000000e+01 
643.162  5.80000000e+01 
643.126  7.90000000e+01 
643.090  7.10000000e+01 
643.054  6.90000000e+01 
643.018  6.30000000e+01 
642.982  5.80000000e+01 
642.946  6.60000000e+01 
642.910  6.80000000e+01 
642.874  6.00000000e+01 
642.838  5.80000000e+01 
642.802  5.30000000e+01 
642.767  6.20000000e+01 
642.731  6.90000000e+01 
642.695  7.30000000e+01 
642.659  7.30000000e+01 
642.623  6.80000000e+01 
642.587  6.90000000e+01 
642.551  6.30000000e+01 
642.515  8.80000000e+01 
642.479  6.70000000e+01 
642.443  6.50000000e+01 
642.407  5.40000000e+01 
642.372  6.40000000e+01 
642.336  5.00000000e+01 
642.300  6.50000000e+01 
642.264  6.90000000e+01 
642.228  7.30000000e+01 
642.192  5.50000000e+01 
642.156  6.60000000e+01 
642.120  6.40000000e+01 
642.084  7.20000000e+01 
642.048  8.00000000e+01 
642.012  6.70000000e+01 
641.976  6.90000000e+01 
641.941  4.50000000e+01 
641.905  7.50000000e+01 
641.869  6.20000000e+01 
641.833  6.70000000e+01 
641.797  6.20000000e+01 
641.761  6.50000000e+01 
641.725  5.70000000e+01 
641.689  6.50000000e+01 
641.653  6.40000000e+01 
641.617  5.40000000e+01 
641.581  5.70000000e+01 
641.546  6.40000000e+01 
641.510  7.00000000e+01 
641.474  5.40000000e+01 
641.438  6.60000000e+01 
641.402  7.20000000e+01 
641.366  6.50000000e+01 
641.330  6.40000000e+01 
641.294  4.90000000e+01 
641.258  7.40000000e+01 
641.222  7.30000000e+01 
641.186  5.40000000e+01 
641.150  5.80000000e+01 
641.115  8.30000000e+01 
641.079  6.70000000e+01 
641.043  5.10000000e+01 
641.007  6.70000000e+01 
640.971  6.30000000e+01 
640.935  6.10000000e+01 
640.899  5.40000000e+01 
640.863  6.70000000e+01 
640.827  5.90000000e+01 
640.791  6.30000000e+01 
640.755  7.40000000e+01 
640.720  7.00000000e+01 
640.684  7.20000000e+01 
640.648  6.50000000e+01 
640.612  6.70000000e+01 
640.576  6.40000000e+01 
640.540  6.80000000e+01 
640.504  5.80000000e+01 
640.468  5.50000000e+01 
640.432  5.50000000e+01 
640.396  6.90000000e+01 
640.360  6.70000000e+01 
640.324  6.00000000e+01 
640.289  5.00000000e+01 
640.253  7.40000000e+01 
640.217  6.70000000e+01 
640.181  5.60000000e+01 
640.145  6.40000000e+01 
640.109  6.60000000e+01 
640.073  6.70000000e+01 
640.037  6.70000000e+01 
640.001  6.90000000e+01 
639.965  5.30000000e+01 
639.929  6.90000000e+01 
639.894  5.60000000e+01 
639.858  6.40000000e+01 
639.822  6.00000000e+01 
639.786  6.50000000e+01 
639.750  6.50000000e+01 
639.714  7.10000000e+01 
639.678  6.70000000e+01 
639.642  6.40000000e+01 
639.606  5.00000000e+01 
639.570  6.10000000e+01 
639.534  5.10000000e+01 
639.498  5.50000000e+01 
639.463  6.60000000e+01 
639.427  5.90000000e+01 
639.391  6.20000000e+01 
639.355  6.70000000e+01 
639.319  4.60000000e+01 
639.283  6.90000000e+01 
639.247  7.40000000e+01 
639.211  6.10000000e+01 
639.175  5.50000000e+01 
639.139  5.50000000e+01 
639.103  6.30000000e+01 
639.068  5.70000000e+01 
639.032  5.20000000e+01 
638.996  6.10000000e+01 
638.960  6.00000000e+01 
638.924  4.20000000e+01 
638.888  6.30000000e+01 
638.852  6.10000000e+01 
638.816  6.10000000e+01 
638.780  6.80000000e+01 
638.744  5.50000000e+01 
638.708  4.50000000e+01 
638.672  5.80000000e+01 
638.637  7.20000000e+01 
638.601  6.70000000e+01 
638.565  6.30000000e+01 
638.529  5.40000000e+01 
638.493  6.10000000e+01 
638.457  6.00000000e+01 
638.421  6.30000000e+01 
638.385  6.50000000e+01 
638.349  4.80000000e+01 
638.313  5.00000000e+01 
638.277  6.60000000e+01 
638.242  6.10000000e+01 
638.206  6.90000000e+01 
638.170  4.90000000e+01 
638.134  5.60000000e+01 
638.098  6.30000000e+01 
638.062  7.20000000e+01 
638.026  6.70000000e+01 
637.990  6.20000000e+01 
637.954  5.30000000e+01 
637.918  5.60000000e+01 
637.882  6.10000000e+01 
637.847  6.70000000e+01 
637.811  5.90000000e+01 
637.775  6.30000000e+01 
637.739  6.90000000e+01 
637.703  7.30000000e+01 
637.667  4.70000000e+01 
637.631  5.50000000e+01 
637.595  7.70000000e+01 
637.559  6.90000000e+01 
637.523  5.20000000e+01 
637.487  5.50000000e+01 
637.451  6.20000000e+01 
637.416  7.60000000e+01 
637.380  5.50000000e+01 
637.344  6.00000000e+01 
637.308  5.90000000e+01 
637.272  5.80000000e+01 
637.236  6.40000000e+01 
637.200  6.40000000e+01 
637.164  6.90000000e+01 
637.128  6.70000000e+01 
637.092  6.70000000e+01 
637.056  5.70000000e+01 
637.021  5.00000000e+01 
