[ Experiment Parameters ]
Experiment Description= aperature off, on closed, on open 
Number_of_Regions_in_Experiment= 3 

Original_File_name= c:\alexesca\data\9707300b.xps 
Instrument= ESCA-West
Date= 07-30-1997
Time=  12:38:07

[ Region 1 Parameters ]
Region_Description = C 1s  also                             
BEcenter(eV) = 286.250000
BEwidth(eV) = 10.000000
BEstep(eV) = 0.107813
Dwell_Time(sec) = 1.250000
N_o_scans = 2  
N_o_Channels = 92  
Excitation_Energy = -0.000000  
Scan_mode = 0  (DITHERED)

[ Region 2 Parameters ]
Region_Description = C 1s  also                             
BEcenter(eV) = 286.250000
BEwidth(eV) = 10.000000
BEstep(eV) = 0.107813
Dwell_Time(sec) = 1.250000
N_o_scans = 2  
N_o_Channels = 92  
Excitation_Energy = -0.000000  
Scan_mode = 0  (DITHERED)

[ Region 3 Parameters ]
Region_Description = C 1s  also                             
BEcenter(eV) = 286.250000
BEwidth(eV) = 10.000000
BEstep(eV) = 0.107813
Dwell_Time(sec) = 1.250000
N_o_scans = 2  
N_o_Channels = 92  
Excitation_Energy = -0.000000  
Scan_mode = 0  (DITHERED)

[ Region 1 Curve ]
BEcenter= 286.250 
BEwidth= -9.764  
Excitation= 1486.600
Time_p_channel= 213.333 
Size= 92
291.132  1.08200000e+03 
291.025  1.22000000e+03 
290.917  1.25000000e+03 
290.810  1.30200000e+03 
290.703  1.28700000e+03 
290.595  1.32700000e+03 
290.488  1.37100000e+03 
290.381  1.30900000e+03 
290.273  1.35400000e+03 
290.166  1.27900000e+03 
290.059  1.32300000e+03 
289.952  1.29000000e+03 
289.844  1.26600000e+03 
289.737  1.32700000e+03 
289.630  1.37100000e+03 
289.522  1.32500000e+03 
289.415  1.27400000e+03 
289.308  1.34000000e+03 
289.201  1.38000000e+03 
289.093  1.48300000e+03 
288.986  1.56500000e+03 
288.879  1.73800000e+03 
288.771  1.75900000e+03 
288.664  1.98600000e+03 
288.557  2.20200000e+03 
288.450  2.24600000e+03 
288.342  2.48500000e+03 
288.235  2.64900000e+03 
288.128  2.84700000e+03 
288.020  2.90700000e+03 
287.913  2.89800000e+03 
287.806  3.07300000e+03 
287.698  3.15500000e+03 
287.591  3.41300000e+03 
287.484  3.70800000e+03 
287.377  4.02000000e+03 
287.269  4.24100000e+03 
287.162  4.68600000e+03 
287.055  5.13700000e+03 
286.947  5.65100000e+03 
286.840  6.27500000e+03 
286.733  6.59900000e+03 
286.626  7.08500000e+03 
286.518  7.08000000e+03 
286.411  7.23000000e+03 
286.304  7.25300000e+03 
286.196  6.70100000e+03 
286.089  5.97800000e+03 
285.982  5.49000000e+03 
285.874  4.72000000e+03 
285.767  3.99900000e+03 
285.660  3.44000000e+03 
285.553  2.75500000e+03 
285.445  2.27400000e+03 
285.338  1.93200000e+03 
285.231  1.59800000e+03 
285.123  1.33100000e+03 
285.016  1.20800000e+03 
284.909  1.04900000e+03 
284.802  1.02700000e+03 
284.694  8.72000000e+02 
284.587  8.77000000e+02 
284.480  8.27000000e+02 
284.372  8.01000000e+02 
284.265  7.59000000e+02 
284.158  7.39000000e+02 
284.050  7.07000000e+02 
283.943  7.23000000e+02 
283.836  7.05000000e+02 
283.729  7.33000000e+02 
283.621  6.95000000e+02 
283.514  6.87000000e+02 
283.407  7.07000000e+02 
283.299  6.56000000e+02 
283.192  6.83000000e+02 
283.085  6.93000000e+02 
282.978  7.02000000e+02 
282.870  6.87000000e+02 
282.763  6.67000000e+02 
282.656  6.76000000e+02 
282.548  6.10000000e+02 
282.441  6.32000000e+02 
282.334  6.86000000e+02 
282.227  6.43000000e+02 
282.119  6.88000000e+02 
282.012  6.42000000e+02 
281.905  6.04000000e+02 
281.797  6.76000000e+02 
281.690  7.00000000e+02 
281.583  6.78000000e+02 
281.475  6.50000000e+02 
281.368  6.38000000e+02 
[ Region 2 Curve ]
BEcenter= 286.250 
BEwidth= -9.764  
Excitation= 1486.600
Time_p_channel= 213.333 
Size= 92
291.132  1.10200000e+03 
291.025  1.16200000e+03 
290.917  1.27800000e+03 
290.810  1.23400000e+03 
290.703  1.38300000e+03 
290.595  1.37800000e+03 
290.488  1.35300000e+03 
290.381  1.25600000e+03 
290.273  1.32400000e+03 
290.166  1.31600000e+03 
290.059  1.33600000e+03 
289.952  1.38800000e+03 
289.844  1.29500000e+03 
289.737  1.26600000e+03 
289.630  1.32400000e+03 
289.522  1.29000000e+03 
289.415  1.33400000e+03 
289.308  1.43400000e+03 
289.201  1.39100000e+03 
289.093  1.42900000e+03 
288.986  1.54400000e+03 
288.879  1.71300000e+03 
288.771  1.87200000e+03 
288.664  1.99700000e+03 
288.557  2.19300000e+03 
288.450  2.29000000e+03 
288.342  2.41700000e+03 
288.235  2.58000000e+03 
288.128  2.83000000e+03 
288.020  3.00700000e+03 
287.913  2.99400000e+03 
287.806  3.16600000e+03 
287.698  3.27100000e+03 
287.591  3.40100000e+03 
287.484  3.58300000e+03 
287.377  4.00600000e+03 
287.269  4.43300000e+03 
287.162  4.81100000e+03 
287.055  5.30400000e+03 
286.947  5.80700000e+03 
286.840  6.20700000e+03 
286.733  6.68000000e+03 
286.626  6.88900000e+03 
286.518  7.05200000e+03 
286.411  6.99100000e+03 
286.304  6.85700000e+03 
286.196  6.45000000e+03 
286.089  5.89900000e+03 
285.982  5.18300000e+03 
285.874  4.44500000e+03 
285.767  3.95800000e+03 
285.660  3.22400000e+03 
285.553  2.72300000e+03 
285.445  2.22600000e+03 
285.338  1.77500000e+03 
285.231  1.56900000e+03 
285.123  1.34200000e+03 
285.016  1.14500000e+03 
284.909  1.05500000e+03 
284.802  9.74000000e+02 
284.694  8.70000000e+02 
284.587  8.74000000e+02 
284.480  7.96000000e+02 
284.372  7.66000000e+02 
284.265  7.79000000e+02 
284.158  7.06000000e+02 
284.050  7.44000000e+02 
283.943  7.30000000e+02 
283.836  7.30000000e+02 
283.729  6.50000000e+02 
283.621  6.67000000e+02 
283.514  6.74000000e+02 
283.407  7.19000000e+02 
283.299  7.22000000e+02 
283.192  6.91000000e+02 
283.085  6.80000000e+02 
282.978  6.37000000e+02 
282.870  7.11000000e+02 
282.763  6.88000000e+02 
282.656  6.76000000e+02 
282.548  6.13000000e+02 
282.441  6.32000000e+02 
282.334  6.96000000e+02 
282.227  6.51000000e+02 
282.119  6.55000000e+02 
282.012  6.44000000e+02 
281.905  6.41000000e+02 
281.797  6.02000000e+02 
281.690  6.24000000e+02 
281.583  6.45000000e+02 
281.475  6.47000000e+02 
281.368  6.56000000e+02 
[ Region 3 Curve ]
BEcenter= 286.250 
BEwidth= -9.764  
Excitation= 1486.600
Time_p_channel= 213.333 
Size= 92
291.132  4.71100000e+03 
291.025  4.96700000e+03 
290.917  5.10600000e+03 
290.810  5.21500000e+03 
290.703  5.35800000e+03 
290.595  5.39300000e+03 
290.488  5.53200000e+03 
290.381  5.60400000e+03 
290.273  5.60300000e+03 
290.166  5.59100000e+03 
290.059  5.70000000e+03 
289.952  5.88400000e+03 
289.844  5.76200000e+03 
289.737  5.85300000e+03 
289.630  5.88300000e+03 
289.522  6.09100000e+03 
289.415  6.28200000e+03 
289.308  6.51100000e+03 
289.201  6.65900000e+03 
289.093  6.98300000e+03 
288.986  7.28400000e+03 
288.879  7.88600000e+03 
288.771  8.30000000e+03 
288.664  8.96600000e+03 
288.557  9.31900000e+03 
288.450  1.00920000e+04 
288.342  1.08430000e+04 
288.235  1.13930000e+04 
288.128  1.22430000e+04 
288.020  1.29770000e+04 
287.913  1.33670000e+04 
287.806  1.38660000e+04 
287.698  1.46170000e+04 
287.591  1.52090000e+04 
287.484  1.62100000e+04 
287.377  1.69570000e+04 
287.269  1.79130000e+04 
287.162  1.89840000e+04 
287.055  2.00440000e+04 
286.947  2.12430000e+04 
286.840  2.21760000e+04 
286.733  2.29410000e+04 
286.626  2.35810000e+04 
286.518  2.40540000e+04 
286.411  2.39040000e+04 
286.304  2.35060000e+04 
286.196  2.27550000e+04 
286.089  2.12950000e+04 
285.982  1.97720000e+04 
285.874  1.79410000e+04 
285.767  1.59570000e+04 
285.660  1.44370000e+04 
285.553  1.29260000e+04 
285.445  1.11030000e+04 
285.338  9.74300000e+03 
285.231  8.38100000e+03 
285.123  7.17500000e+03 
285.016  6.37800000e+03 
284.909  5.61700000e+03 
284.802  4.92500000e+03 
284.694  4.50200000e+03 
284.587  3.97800000e+03 
284.480  3.75700000e+03 
284.372  3.42700000e+03 
284.265  3.38900000e+03 
284.158  3.20300000e+03 
284.050  3.26900000e+03 
283.943  3.05900000e+03 
283.836  3.10800000e+03 
283.729  2.92600000e+03 
283.621  2.82200000e+03 
283.514  2.88300000e+03 
283.407  2.76500000e+03 
283.299  2.95900000e+03 
283.192  2.89900000e+03 
283.085  2.86200000e+03 
282.978  2.93800000e+03 
282.870  2.87500000e+03 
282.763  2.76400000e+03 
282.656  2.79200000e+03 
282.548  2.77800000e+03 
282.441  2.73400000e+03 
282.334  2.74600000e+03 
282.227  2.83200000e+03 
282.119  2.78300000e+03 
282.012  2.84700000e+03 
281.905  2.78800000e+03 
281.797  2.70800000e+03 
281.690  2.82000000e+03 
281.583  2.73600000e+03 
281.475  2.84400000e+03 
281.368  2.74600000e+03 
