[ Experiment Parameters ]
Experiment Description= <none> 
Number_of_Regions_in_Experiment= 2 

Original_File_name= c:\alexesca\data\97073103.xps 
Instrument= ESCA-West
Date= 07-30-1997
Time=  20:02:05

[ Region 1 Parameters ]
Region_Description = O for XPD                          
BEcenter(eV) = 532.000000
BEwidth(eV) = 14.000000
BEstep(eV) = 0.035938
Dwell_Time(sec) = 0.250000
N_o_scans = 1  
N_o_Channels = 390  
Excitation_Energy = -0.000000  
Scan_mode = 0  (DITHERED)

[ Region 2 Parameters ]
Region_Description = Mn for XPD                         
BEcenter(eV) = 643.000000
BEwidth(eV) = 12.000000
BEstep(eV) = 0.035938
Dwell_Time(sec) = 0.250000
N_o_scans = 1  
N_o_Channels = 334  
Excitation_Energy = -0.000000  
Scan_mode = 0  (DITHERED)

[ Region 1 Curve ]
BEcenter= 532.000 
BEwidth= -13.975 
Excitation= 1486.600
Time_p_channel= 64.000  
Size= 390
538.987  2.30000000e+01 
538.951  3.50000000e+01 
538.915  1.90000000e+01 
538.880  2.90000000e+01 
538.844  1.90000000e+01 
538.808  2.40000000e+01 
538.772  2.20000000e+01 
538.736  3.30000000e+01 
538.700  2.30000000e+01 
538.664  1.30000000e+01 
538.628  1.80000000e+01 
538.592  2.90000000e+01 
538.556  2.80000000e+01 
538.520  1.80000000e+01 
538.484  2.50000000e+01 
538.448  2.70000000e+01 
538.413  2.60000000e+01 
538.377  2.80000000e+01 
538.341  3.00000000e+01 
538.305  2.70000000e+01 
538.269  2.90000000e+01 
538.233  2.40000000e+01 
538.197  1.90000000e+01 
538.161  2.30000000e+01 
538.125  3.70000000e+01 
538.089  2.70000000e+01 
538.053  1.70000000e+01 
538.017  2.30000000e+01 
537.981  2.00000000e+01 
537.945  2.60000000e+01 
537.910  2.90000000e+01 
537.874  1.60000000e+01 
537.838  1.70000000e+01 
537.802  2.00000000e+01 
537.766  3.10000000e+01 
537.730  2.90000000e+01 
537.694  2.80000000e+01 
537.658  1.90000000e+01 
537.622  1.80000000e+01 
537.586  3.30000000e+01 
537.550  2.70000000e+01 
537.514  1.90000000e+01 
537.478  2.10000000e+01 
537.443  2.30000000e+01 
537.407  2.50000000e+01 
537.371  2.50000000e+01 
537.335  1.90000000e+01 
537.299  2.60000000e+01 
537.263  2.30000000e+01 
537.227  2.20000000e+01 
537.191  3.20000000e+01 
537.155  2.30000000e+01 
537.119  2.10000000e+01 
537.083  2.50000000e+01 
537.047  2.50000000e+01 
537.011  3.00000000e+01 
536.976  2.80000000e+01 
536.940  2.20000000e+01 
536.904  1.80000000e+01 
536.868  2.00000000e+01 
536.832  2.80000000e+01 
536.796  2.30000000e+01 
536.760  2.80000000e+01 
536.724  3.90000000e+01 
536.688  2.70000000e+01 
536.652  1.90000000e+01 
536.616  2.10000000e+01 
536.580  2.70000000e+01 
536.544  2.50000000e+01 
536.509  2.20000000e+01 
536.473  2.10000000e+01 
536.437  2.20000000e+01 
536.401  3.30000000e+01 
536.365  2.10000000e+01 
536.329  3.00000000e+01 
536.293  2.40000000e+01 
536.257  3.40000000e+01 
536.221  3.90000000e+01 
536.185  2.60000000e+01 
536.149  1.80000000e+01 
536.113  2.60000000e+01 
536.077  2.50000000e+01 
536.042  2.40000000e+01 
536.006  2.90000000e+01 
535.970  2.80000000e+01 
535.934  2.60000000e+01 
535.898  3.40000000e+01 
535.862  3.70000000e+01 
535.826  3.10000000e+01 
535.790  3.50000000e+01 
535.754  3.10000000e+01 
535.718  3.70000000e+01 
535.682  3.20000000e+01 
535.646  3.40000000e+01 
535.610  2.40000000e+01 
535.574  2.70000000e+01 
535.539  2.70000000e+01 
535.503  4.00000000e+01 
535.467  3.40000000e+01 
535.431  2.00000000e+01 
535.395  3.10000000e+01 
535.359  3.50000000e+01 
535.323  3.60000000e+01 
535.287  4.40000000e+01 
535.251  3.20000000e+01 
535.215  3.80000000e+01 
535.179  3.00000000e+01 
535.143  4.20000000e+01 
535.107  4.00000000e+01 
535.072  3.80000000e+01 
535.036  5.00000000e+01 
535.000  4.70000000e+01 
534.964  6.00000000e+01 
534.928  4.70000000e+01 
534.892  4.80000000e+01 
534.856  4.50000000e+01 
534.820  4.40000000e+01 
534.784  4.80000000e+01 
534.748  5.10000000e+01 
534.712  4.60000000e+01 
534.676  5.80000000e+01 
534.640  5.60000000e+01 
534.605  4.40000000e+01 
534.569  4.60000000e+01 
534.533  6.00000000e+01 
534.497  4.90000000e+01 
534.461  5.30000000e+01 
534.425  7.60000000e+01 
534.389  6.50000000e+01 
534.353  6.80000000e+01 
534.317  5.60000000e+01 
534.281  7.70000000e+01 
534.245  8.40000000e+01 
534.209  8.10000000e+01 
534.173  5.00000000e+01 
534.138  6.70000000e+01 
534.102  7.00000000e+01 
534.066  7.20000000e+01 
534.030  8.90000000e+01 
533.994  9.50000000e+01 
533.958  9.50000000e+01 
533.922  8.60000000e+01 
533.886  8.60000000e+01 
533.850  9.10000000e+01 
533.814  9.50000000e+01 
533.778  8.80000000e+01 
533.742  8.50000000e+01 
533.706  9.50000000e+01 
533.670  9.50000000e+01 
533.635  7.50000000e+01 
533.599  9.50000000e+01 
533.563  9.30000000e+01 
533.527  8.30000000e+01 
533.491  1.01000000e+02 
533.455  9.40000000e+01 
533.419  1.03000000e+02 
533.383  9.80000000e+01 
533.347  9.50000000e+01 
533.311  1.03000000e+02 
533.275  9.80000000e+01 
533.239  9.20000000e+01 
533.203  8.40000000e+01 
533.168  1.05000000e+02 
533.132  1.27000000e+02 
533.096  9.80000000e+01 
533.060  9.60000000e+01 
533.024  9.10000000e+01 
532.988  1.10000000e+02 
532.952  8.50000000e+01 
532.916  7.80000000e+01 
532.880  9.10000000e+01 
532.844  7.90000000e+01 
532.808  8.30000000e+01 
532.772  8.70000000e+01 
532.736  7.90000000e+01 
532.701  6.30000000e+01 
532.665  7.70000000e+01 
532.629  6.90000000e+01 
532.593  8.60000000e+01 
532.557  6.90000000e+01 
532.521  5.40000000e+01 
532.485  5.90000000e+01 
532.449  6.90000000e+01 
532.413  6.00000000e+01 
532.377  7.20000000e+01 
532.341  4.80000000e+01 
532.305  6.00000000e+01 
532.269  5.80000000e+01 
532.234  6.20000000e+01 
532.198  5.20000000e+01 
532.162  5.50000000e+01 
532.126  3.30000000e+01 
532.090  5.80000000e+01 
532.054  4.40000000e+01 
532.018  6.20000000e+01 
531.982  6.00000000e+01 
531.946  4.10000000e+01 
531.910  5.60000000e+01 
531.874  2.80000000e+01 
531.838  4.20000000e+01 
531.802  4.30000000e+01 
531.766  3.40000000e+01 
531.731  3.70000000e+01 
531.695  3.00000000e+01 
531.659  3.60000000e+01 
531.623  3.70000000e+01 
531.587  3.90000000e+01 
531.551  4.00000000e+01 
531.515  4.30000000e+01 
531.479  3.10000000e+01 
531.443  3.60000000e+01 
531.407  3.90000000e+01 
531.371  2.60000000e+01 
531.335  3.70000000e+01 
531.299  4.20000000e+01 
531.264  2.30000000e+01 
531.228  2.70000000e+01 
531.192  2.90000000e+01 
531.156  2.90000000e+01 
531.120  3.80000000e+01 
531.084  3.20000000e+01 
531.048  3.90000000e+01 
531.012  3.20000000e+01 
530.976  2.80000000e+01 
530.940  2.80000000e+01 
530.904  2.50000000e+01 
530.868  3.00000000e+01 
530.832  2.10000000e+01 
530.797  3.00000000e+01 
530.761  2.40000000e+01 
530.725  3.10000000e+01 
530.689  2.90000000e+01 
530.653  3.70000000e+01 
530.617  2.70000000e+01 
530.581  3.10000000e+01 
530.545  2.70000000e+01 
530.509  2.80000000e+01 
530.473  3.00000000e+01 
530.437  2.30000000e+01 
530.401  2.90000000e+01 
530.365  2.40000000e+01 
530.330  2.10000000e+01 
530.294  1.90000000e+01 
530.258  2.70000000e+01 
530.222  2.60000000e+01 
530.186  2.50000000e+01 
530.150  2.80000000e+01 
530.114  1.80000000e+01 
530.078  2.50000000e+01 
530.042  2.10000000e+01 
530.006  1.90000000e+01 
529.970  2.90000000e+01 
529.934  2.10000000e+01 
529.898  3.10000000e+01 
529.862  2.00000000e+01 
529.827  2.20000000e+01 
529.791  1.90000000e+01 
529.755  2.60000000e+01 
529.719  1.80000000e+01 
529.683  1.70000000e+01 
529.647  1.60000000e+01 
529.611  2.10000000e+01 
529.575  3.00000000e+01 
529.539  3.30000000e+01 
529.503  1.70000000e+01 
529.467  2.50000000e+01 
529.431  2.70000000e+01 
529.395  2.00000000e+01 
529.360  2.30000000e+01 
529.324  1.60000000e+01 
529.288  3.20000000e+01 
529.252  2.00000000e+01 
529.216  3.10000000e+01 
529.180  2.00000000e+01 
529.144  2.50000000e+01 
529.108  3.00000000e+01 
529.072  2.50000000e+01 
529.036  1.60000000e+01 
529.000  2.90000000e+01 
528.964  3.00000000e+01 
528.928  2.60000000e+01 
528.893  2.30000000e+01 
528.857  2.60000000e+01 
528.821  2.40000000e+01 
528.785  1.80000000e+01 
528.749  3.10000000e+01 
528.713  2.00000000e+01 
528.677  1.70000000e+01 
528.641  2.10000000e+01 
528.605  2.10000000e+01 
528.569  3.00000000e+01 
528.533  2.40000000e+01 
528.497  2.10000000e+01 
528.461  1.90000000e+01 
528.426  2.40000000e+01 
528.390  2.30000000e+01 
528.354  2.00000000e+01 
528.318  3.10000000e+01 
528.282  2.20000000e+01 
528.246  2.20000000e+01 
528.210  2.50000000e+01 
528.174  1.40000000e+01 
528.138  2.40000000e+01 
528.102  2.50000000e+01 
528.066  1.80000000e+01 
528.030  1.50000000e+01 
527.994  1.50000000e+01 
527.958  1.50000000e+01 
527.923  2.40000000e+01 
527.887  3.90000000e+01 
527.851  2.00000000e+01 
527.815  2.80000000e+01 
527.779  2.50000000e+01 
527.743  2.50000000e+01 
527.707  1.60000000e+01 
527.671  2.70000000e+01 
527.635  1.30000000e+01 
527.599  2.30000000e+01 
527.563  3.30000000e+01 
527.527  2.30000000e+01 
527.491  2.20000000e+01 
527.456  1.90000000e+01 
527.420  2.10000000e+01 
527.384  2.20000000e+01 
527.348  2.90000000e+01 
527.312  2.70000000e+01 
527.276  2.20000000e+01 
527.240  2.10000000e+01 
527.204  2.00000000e+01 
527.168  2.70000000e+01 
527.132  2.10000000e+01 
527.096  3.20000000e+01 
527.060  1.90000000e+01 
527.024  2.10000000e+01 
526.989  2.20000000e+01 
526.953  1.50000000e+01 
526.917  2.10000000e+01 
526.881  2.00000000e+01 
526.845  2.70000000e+01 
526.809  2.30000000e+01 
526.773  2.40000000e+01 
526.737  2.00000000e+01 
526.701  2.20000000e+01 
526.665  2.20000000e+01 
526.629  2.10000000e+01 
526.593  1.50000000e+01 
526.557  2.00000000e+01 
526.522  2.30000000e+01 
526.486  2.70000000e+01 
526.450  2.20000000e+01 
526.414  2.80000000e+01 
526.378  2.10000000e+01 
526.342  1.80000000e+01 
526.306  2.70000000e+01 
526.270  2.30000000e+01 
526.234  3.00000000e+01 
526.198  2.60000000e+01 
526.162  2.30000000e+01 
526.126  2.40000000e+01 
526.090  2.40000000e+01 
526.055  2.60000000e+01 
526.019  2.00000000e+01 
525.983  2.10000000e+01 
525.947  3.10000000e+01 
525.911  2.70000000e+01 
525.875  2.60000000e+01 
525.839  2.10000000e+01 
525.803  1.80000000e+01 
525.767  1.90000000e+01 
525.731  2.60000000e+01 
525.695  2.40000000e+01 
525.659  1.70000000e+01 
525.623  2.10000000e+01 
525.587  2.30000000e+01 
525.552  3.30000000e+01 
525.516  2.80000000e+01 
525.480  2.70000000e+01 
525.444  1.90000000e+01 
525.408  1.80000000e+01 
525.372  2.00000000e+01 
525.336  2.20000000e+01 
525.300  1.90000000e+01 
525.264  1.70000000e+01 
525.228  2.70000000e+01 
525.192  2.30000000e+01 
525.156  1.60000000e+01 
525.120  2.30000000e+01 
525.085  2.30000000e+01 
525.049  2.20000000e+01 
525.013  2.80000000e+01 
[ Region 2 Curve ]
BEcenter= 643.000 
BEwidth= -11.959 
Excitation= 1486.600
Time_p_channel= 64.000  
Size= 334
648.979  3.20000000e+01 
648.944  3.30000000e+01 
648.908  3.90000000e+01 
648.872  3.50000000e+01 
648.836  4.40000000e+01 
648.800  4.70000000e+01 
648.764  4.20000000e+01 
648.728  3.80000000e+01 
648.692  4.40000000e+01 
648.656  3.50000000e+01 
648.620  3.60000000e+01 
648.584  4.20000000e+01 
648.549  3.30000000e+01 
648.513  4.60000000e+01 
648.477  4.00000000e+01 
648.441  4.70000000e+01 
648.405  4.30000000e+01 
648.369  3.60000000e+01 
648.333  3.40000000e+01 
648.297  4.80000000e+01 
648.261  3.90000000e+01 
648.225  3.70000000e+01 
648.189  4.30000000e+01 
648.153  3.90000000e+01 
648.118  3.20000000e+01 
648.082  3.10000000e+01 
648.046  4.90000000e+01 
648.010  3.00000000e+01 
647.974  4.00000000e+01 
647.938  3.70000000e+01 
647.902  4.60000000e+01 
647.866  3.90000000e+01 
647.830  3.40000000e+01 
647.794  4.00000000e+01 
647.758  4.00000000e+01 
647.723  3.30000000e+01 
647.687  3.50000000e+01 
647.651  4.80000000e+01 
647.615  4.20000000e+01 
647.579  4.50000000e+01 
647.543  4.60000000e+01 
647.507  3.10000000e+01 
647.471  5.10000000e+01 
647.435  4.10000000e+01 
647.399  4.50000000e+01 
647.363  4.80000000e+01 
647.328  4.60000000e+01 
647.292  5.00000000e+01 
647.256  4.70000000e+01 
647.220  4.20000000e+01 
647.184  4.00000000e+01 
647.148  3.50000000e+01 
647.112  3.50000000e+01 
647.076  4.40000000e+01 
647.040  3.60000000e+01 
647.004  4.00000000e+01 
646.968  3.70000000e+01 
646.932  4.40000000e+01 
646.897  4.60000000e+01 
646.861  3.60000000e+01 
646.825  4.90000000e+01 
646.789  4.60000000e+01 
646.753  3.30000000e+01 
646.717  4.20000000e+01 
646.681  4.60000000e+01 
646.645  4.40000000e+01 
646.609  3.90000000e+01 
646.573  4.10000000e+01 
646.537  4.00000000e+01 
646.502  3.30000000e+01 
646.466  3.80000000e+01 
646.430  4.30000000e+01 
646.394  4.10000000e+01 
646.358  4.60000000e+01 
646.322  3.70000000e+01 
646.286  3.30000000e+01 
646.250  4.00000000e+01 
646.214  3.50000000e+01 
646.178  3.40000000e+01 
646.142  5.30000000e+01 
646.106  3.60000000e+01 
646.071  3.00000000e+01 
646.035  3.70000000e+01 
645.999  3.70000000e+01 
645.963  5.00000000e+01 
645.927  3.30000000e+01 
645.891  2.30000000e+01 
645.855  4.30000000e+01 
645.819  3.30000000e+01 
645.783  3.10000000e+01 
645.747  4.60000000e+01 
645.711  3.40000000e+01 
645.676  4.80000000e+01 
645.640  4.60000000e+01 
645.604  3.50000000e+01 
645.568  3.50000000e+01 
645.532  3.90000000e+01 
645.496  4.50000000e+01 
645.460  4.30000000e+01 
645.424  4.20000000e+01 
645.388  4.00000000e+01 
645.352  5.30000000e+01 
645.316  4.70000000e+01 
645.280  4.70000000e+01 
645.245  3.60000000e+01 
645.209  3.20000000e+01 
645.173  3.50000000e+01 
645.137  4.30000000e+01 
645.101  3.60000000e+01 
645.065  4.20000000e+01 
645.029  3.40000000e+01 
644.993  4.40000000e+01 
644.957  5.20000000e+01 
644.921  3.70000000e+01 
644.885  3.40000000e+01 
644.850  4.10000000e+01 
644.814  3.50000000e+01 
644.778  3.70000000e+01 
644.742  3.20000000e+01 
644.706  4.50000000e+01 
644.670  5.30000000e+01 
644.634  4.10000000e+01 
644.598  5.40000000e+01 
644.562  3.70000000e+01 
644.526  4.10000000e+01 
644.490  4.60000000e+01 
644.454  2.50000000e+01 
644.419  4.30000000e+01 
644.383  4.30000000e+01 
644.347  2.90000000e+01 
644.311  3.70000000e+01 
644.275  3.70000000e+01 
644.239  5.20000000e+01 
644.203  3.90000000e+01 
644.167  5.10000000e+01 
644.131  4.00000000e+01 
644.095  5.00000000e+01 
644.059  3.80000000e+01 
644.024  3.30000000e+01 
643.988  3.00000000e+01 
643.952  3.90000000e+01 
643.916  4.90000000e+01 
643.880  4.00000000e+01 
643.844  3.90000000e+01 
643.808  3.30000000e+01 
643.772  4.20000000e+01 
643.736  4.10000000e+01 
643.700  3.80000000e+01 
643.664  5.10000000e+01 
643.628  3.70000000e+01 
643.593  3.80000000e+01 
643.557  4.90000000e+01 
643.521  3.10000000e+01 
643.485  3.60000000e+01 
643.449  4.70000000e+01 
643.413  3.80000000e+01 
643.377  4.60000000e+01 
643.341  3.70000000e+01 
643.305  4.20000000e+01 
643.269  4.00000000e+01 
643.233  4.90000000e+01 
643.198  3.60000000e+01 
643.162  3.50000000e+01 
643.126  2.50000000e+01 
643.090  4.10000000e+01 
643.054  3.70000000e+01 
643.018  4.90000000e+01 
642.982  2.70000000e+01 
642.946  4.10000000e+01 
642.910  3.20000000e+01 
642.874  4.20000000e+01 
642.838  4.40000000e+01 
642.802  4.20000000e+01 
642.767  4.30000000e+01 
642.731  4.50000000e+01 
642.695  4.30000000e+01 
642.659  3.60000000e+01 
642.623  3.60000000e+01 
642.587  4.70000000e+01 
642.551  4.50000000e+01 
642.515  4.60000000e+01 
642.479  4.00000000e+01 
642.443  3.10000000e+01 
642.407  4.30000000e+01 
642.372  3.70000000e+01 
642.336  4.00000000e+01 
642.300  5.00000000e+01 
642.264  4.30000000e+01 
642.228  3.80000000e+01 
642.192  4.10000000e+01 
642.156  4.00000000e+01 
642.120  3.40000000e+01 
642.084  4.00000000e+01 
642.048  4.40000000e+01 
642.012  4.30000000e+01 
641.976  4.00000000e+01 
641.941  4.30000000e+01 
641.905  3.30000000e+01 
641.869  3.60000000e+01 
641.833  5.20000000e+01 
641.797  4.20000000e+01 
641.761  3.60000000e+01 
641.725  3.70000000e+01 
641.689  4.10000000e+01 
641.653  3.20000000e+01 
641.617  4.60000000e+01 
641.581  4.40000000e+01 
641.546  4.20000000e+01 
641.510  3.20000000e+01 
641.474  3.90000000e+01 
641.438  4.90000000e+01 
641.402  4.90000000e+01 
641.366  3.30000000e+01 
641.330  3.60000000e+01 
641.294  4.00000000e+01 
641.258  3.40000000e+01 
641.222  3.30000000e+01 
641.186  3.90000000e+01 
641.150  3.80000000e+01 
641.115  4.40000000e+01 
641.079  4.00000000e+01 
641.043  4.70000000e+01 
641.007  3.50000000e+01 
640.971  4.20000000e+01 
640.935  5.40000000e+01 
640.899  2.10000000e+01 
640.863  3.80000000e+01 
640.827  4.60000000e+01 
640.791  3.50000000e+01 
640.755  2.80000000e+01 
640.720  4.30000000e+01 
640.684  3.00000000e+01 
640.648  4.10000000e+01 
640.612  4.00000000e+01 
640.576  4.50000000e+01 
640.540  3.30000000e+01 
640.504  5.00000000e+01 
640.468  3.80000000e+01 
640.432  4.30000000e+01 
640.396  3.40000000e+01 
640.360  4.30000000e+01 
640.324  4.50000000e+01 
640.289  5.10000000e+01 
640.253  4.10000000e+01 
640.217  4.00000000e+01 
640.181  3.40000000e+01 
640.145  4.70000000e+01 
640.109  3.60000000e+01 
640.073  3.20000000e+01 
640.037  4.70000000e+01 
640.001  4.10000000e+01 
639.965  4.00000000e+01 
639.929  4.20000000e+01 
639.894  3.90000000e+01 
639.858  4.30000000e+01 
639.822  4.40000000e+01 
639.786  3.80000000e+01 
639.750  3.20000000e+01 
639.714  4.00000000e+01 
639.678  2.40000000e+01 
639.642  3.80000000e+01 
639.606  4.20000000e+01 
639.570  3.50000000e+01 
639.534  3.40000000e+01 
639.498  3.10000000e+01 
639.463  4.10000000e+01 
639.427  2.90000000e+01 
639.391  3.90000000e+01 
639.355  4.60000000e+01 
639.319  3.40000000e+01 
639.283  4.90000000e+01 
639.247  4.40000000e+01 
639.211  4.30000000e+01 
639.175  5.00000000e+01 
639.139  3.80000000e+01 
639.103  4.30000000e+01 
639.068  3.70000000e+01 
639.032  5.30000000e+01 
638.996  3.20000000e+01 
638.960  3.80000000e+01 
638.924  4.00000000e+01 
638.888  4.90000000e+01 
638.852  3.20000000e+01 
638.816  3.50000000e+01 
638.780  3.40000000e+01 
638.744  4.00000000e+01 
638.708  5.50000000e+01 
638.672  4.40000000e+01 
638.637  4.60000000e+01 
638.601  4.50000000e+01 
638.565  3.20000000e+01 
638.529  4.40000000e+01 
638.493  3.90000000e+01 
638.457  2.90000000e+01 
638.421  3.30000000e+01 
638.385  3.40000000e+01 
638.349  3.40000000e+01 
638.313  3.20000000e+01 
638.277  3.40000000e+01 
638.242  5.30000000e+01 
638.206  4.00000000e+01 
638.170  4.10000000e+01 
638.134  4.20000000e+01 
638.098  3.70000000e+01 
638.062  3.90000000e+01 
638.026  3.30000000e+01 
637.990  3.60000000e+01 
637.954  3.30000000e+01 
637.918  3.70000000e+01 
637.882  3.80000000e+01 
637.847  3.50000000e+01 
637.811  3.70000000e+01 
637.775  3.80000000e+01 
637.739  4.40000000e+01 
637.703  3.20000000e+01 
637.667  4.80000000e+01 
637.631  3.80000000e+01 
637.595  5.00000000e+01 
637.559  4.30000000e+01 
637.523  3.70000000e+01 
637.487  4.40000000e+01 
637.451  4.60000000e+01 
637.416  5.20000000e+01 
637.380  3.40000000e+01 
637.344  3.40000000e+01 
637.308  3.30000000e+01 
637.272  3.30000000e+01 
637.236  4.60000000e+01 
637.200  3.30000000e+01 
637.164  4.70000000e+01 
637.128  5.00000000e+01 
637.092  3.90000000e+01 
637.056  3.60000000e+01 
637.021  2.60000000e+01 
