[ Experiment Parameters ]
Experiment Description= <none> 
Number_of_Regions_in_Experiment= 2 

Original_File_name= c:\alexesca\data\97073007.xps 
Instrument= ESCA-West
Date= 07-29-1997
Time=  22:15:25

[ Region 1 Parameters ]
Region_Description = O for XPD                          
BEcenter(eV) = 532.000000
BEwidth(eV) = 10.000000
BEstep(eV) = 0.035938
Dwell_Time(sec) = 0.500000
N_o_scans = 1  
N_o_Channels = 278  
Excitation_Energy = -0.000000  
Scan_mode = 0  (DITHERED)

[ Region 2 Parameters ]
Region_Description = Mn for XPD                         
BEcenter(eV) = 643.000000
BEwidth(eV) = 15.000000
BEstep(eV) = 0.035938
Dwell_Time(sec) = 0.500000
N_o_scans = 1  
N_o_Channels = 417  
Excitation_Energy = -0.000000  
Scan_mode = 0  (DITHERED)

[ Region 1 Curve ]
BEcenter= 532.000 
BEwidth= -9.943  
Excitation= 1486.600
Time_p_channel= 128.000 
Size= 278
536.972  5.99000000e+02 
536.936  6.08000000e+02 
536.900  5.98000000e+02 
536.864  5.48000000e+02 
536.828  5.82000000e+02 
536.792  5.77000000e+02 
536.756  5.59000000e+02 
536.720  5.99000000e+02 
536.685  5.04000000e+02 
536.649  5.85000000e+02 
536.613  5.81000000e+02 
536.577  5.88000000e+02 
536.541  5.42000000e+02 
536.505  5.70000000e+02 
536.469  5.08000000e+02 
536.433  6.02000000e+02 
536.397  5.88000000e+02 
536.361  5.83000000e+02 
536.326  6.08000000e+02 
536.290  5.56000000e+02 
536.254  6.03000000e+02 
536.218  5.56000000e+02 
536.182  5.65000000e+02 
536.146  6.17000000e+02 
536.110  5.72000000e+02 
536.074  5.70000000e+02 
536.038  5.72000000e+02 
536.002  5.74000000e+02 
535.967  5.44000000e+02 
535.931  5.89000000e+02 
535.895  5.59000000e+02 
535.859  5.72000000e+02 
535.823  5.88000000e+02 
535.787  5.77000000e+02 
535.751  5.43000000e+02 
535.715  5.92000000e+02 
535.679  5.61000000e+02 
535.644  5.77000000e+02 
535.608  5.87000000e+02 
535.572  5.96000000e+02 
535.536  5.99000000e+02 
535.500  5.91000000e+02 
535.464  5.66000000e+02 
535.428  5.77000000e+02 
535.392  5.68000000e+02 
535.356  5.62000000e+02 
535.320  5.69000000e+02 
535.285  5.76000000e+02 
535.249  5.76000000e+02 
535.213  6.19000000e+02 
535.177  5.59000000e+02 
535.141  6.01000000e+02 
535.105  5.69000000e+02 
535.069  6.09000000e+02 
535.033  5.52000000e+02 
534.997  5.87000000e+02 
534.961  5.77000000e+02 
534.926  5.52000000e+02 
534.890  5.72000000e+02 
534.854  5.56000000e+02 
534.818  5.68000000e+02 
534.782  5.47000000e+02 
534.746  5.63000000e+02 
534.710  5.41000000e+02 
534.674  5.98000000e+02 
534.638  5.56000000e+02 
534.603  5.56000000e+02 
534.567  5.74000000e+02 
534.531  5.73000000e+02 
534.495  5.79000000e+02 
534.459  5.93000000e+02 
534.423  5.78000000e+02 
534.387  6.00000000e+02 
534.351  6.38000000e+02 
534.315  5.85000000e+02 
534.279  5.72000000e+02 
534.244  5.66000000e+02 
534.208  5.54000000e+02 
534.172  5.43000000e+02 
534.136  5.82000000e+02 
534.100  6.02000000e+02 
534.064  5.68000000e+02 
534.028  5.60000000e+02 
533.992  5.93000000e+02 
533.956  5.98000000e+02 
533.920  6.17000000e+02 
533.885  5.76000000e+02 
533.849  6.11000000e+02 
533.813  5.68000000e+02 
533.777  6.08000000e+02 
533.741  5.62000000e+02 
533.705  5.72000000e+02 
533.669  5.62000000e+02 
533.633  5.63000000e+02 
533.597  5.64000000e+02 
533.562  5.89000000e+02 
533.526  5.89000000e+02 
533.490  6.11000000e+02 
533.454  5.88000000e+02 
533.418  5.91000000e+02 
533.382  5.82000000e+02 
533.346  5.81000000e+02 
533.310  5.69000000e+02 
533.274  6.06000000e+02 
533.238  6.26000000e+02 
533.203  5.73000000e+02 
533.167  5.69000000e+02 
533.131  6.09000000e+02 
533.095  5.91000000e+02 
533.059  5.80000000e+02 
533.023  6.15000000e+02 
532.987  5.20000000e+02 
532.951  5.78000000e+02 
532.915  5.76000000e+02 
532.879  5.63000000e+02 
532.844  6.02000000e+02 
532.808  5.91000000e+02 
532.772  5.35000000e+02 
532.736  5.52000000e+02 
532.700  5.78000000e+02 
532.664  5.13000000e+02 
532.628  5.68000000e+02 
532.592  6.17000000e+02 
532.556  6.00000000e+02 
532.521  5.61000000e+02 
532.485  6.03000000e+02 
532.449  5.75000000e+02 
532.413  5.72000000e+02 
532.377  5.89000000e+02 
532.341  6.00000000e+02 
532.305  5.58000000e+02 
532.269  5.28000000e+02 
532.233  5.75000000e+02 
532.197  5.81000000e+02 
532.162  5.46000000e+02 
532.126  5.56000000e+02 
532.090  5.70000000e+02 
532.054  5.91000000e+02 
532.018  5.63000000e+02 
531.982  6.26000000e+02 
531.946  5.81000000e+02 
531.910  5.65000000e+02 
531.874  5.76000000e+02 
531.838  6.03000000e+02 
531.803  6.00000000e+02 
531.767  6.07000000e+02 
531.731  5.48000000e+02 
531.695  5.55000000e+02 
531.659  5.90000000e+02 
531.623  5.47000000e+02 
531.587  5.86000000e+02 
531.551  5.94000000e+02 
531.515  5.58000000e+02 
531.479  5.45000000e+02 
531.444  5.50000000e+02 
531.408  6.16000000e+02 
531.372  5.44000000e+02 
531.336  5.72000000e+02 
531.300  5.65000000e+02 
531.264  5.57000000e+02 
531.228  5.43000000e+02 
531.192  5.76000000e+02 
531.156  5.92000000e+02 
531.121  5.71000000e+02 
531.085  5.75000000e+02 
531.049  5.27000000e+02 
531.013  5.95000000e+02 
530.977  5.53000000e+02 
530.941  6.03000000e+02 
530.905  6.26000000e+02 
530.869  6.06000000e+02 
530.833  5.85000000e+02 
530.797  5.97000000e+02 
530.762  5.65000000e+02 
530.726  6.05000000e+02 
530.690  5.66000000e+02 
530.654  6.10000000e+02 
530.618  5.54000000e+02 
530.582  6.00000000e+02 
530.546  5.70000000e+02 
530.510  6.12000000e+02 
530.474  5.41000000e+02 
530.438  5.73000000e+02 
530.403  6.20000000e+02 
530.367  5.82000000e+02 
530.331  5.71000000e+02 
530.295  5.71000000e+02 
530.259  5.62000000e+02 
530.223  6.10000000e+02 
530.187  5.67000000e+02 
530.151  5.62000000e+02 
530.115  5.96000000e+02 
530.080  5.48000000e+02 
530.044  5.43000000e+02 
530.008  6.05000000e+02 
529.972  5.68000000e+02 
529.936  5.51000000e+02 
529.900  5.93000000e+02 
529.864  5.78000000e+02 
529.828  5.82000000e+02 
529.792  5.92000000e+02 
529.756  5.52000000e+02 
529.721  5.62000000e+02 
529.685  5.44000000e+02 
529.649  6.38000000e+02 
529.613  5.67000000e+02 
529.577  6.12000000e+02 
529.541  5.65000000e+02 
529.505  5.23000000e+02 
529.469  5.89000000e+02 
529.433  5.74000000e+02 
529.397  5.91000000e+02 
529.362  5.41000000e+02 
529.326  5.42000000e+02 
529.290  5.89000000e+02 
529.254  5.67000000e+02 
529.218  5.43000000e+02 
529.182  5.59000000e+02 
529.146  5.60000000e+02 
529.110  5.69000000e+02 
529.074  6.26000000e+02 
529.039  5.87000000e+02 
529.003  5.73000000e+02 
528.967  5.63000000e+02 
528.931  5.75000000e+02 
528.895  6.03000000e+02 
528.859  5.89000000e+02 
528.823  5.86000000e+02 
528.787  6.19000000e+02 
528.751  5.76000000e+02 
528.715  5.88000000e+02 
528.680  5.55000000e+02 
528.644  6.11000000e+02 
528.608  5.87000000e+02 
528.572  5.91000000e+02 
528.536  5.83000000e+02 
528.500  5.55000000e+02 
528.464  5.56000000e+02 
528.428  5.85000000e+02 
528.392  5.74000000e+02 
528.356  5.64000000e+02 
528.321  5.77000000e+02 
528.285  5.51000000e+02 
528.249  6.15000000e+02 
528.213  6.01000000e+02 
528.177  5.61000000e+02 
528.141  5.57000000e+02 
528.105  5.39000000e+02 
528.069  5.76000000e+02 
528.033  5.70000000e+02 
527.998  5.74000000e+02 
527.962  5.36000000e+02 
527.926  5.54000000e+02 
527.890  5.66000000e+02 
527.854  5.87000000e+02 
527.818  5.63000000e+02 
527.782  5.85000000e+02 
527.746  5.40000000e+02 
527.710  5.60000000e+02 
527.674  5.48000000e+02 
527.639  5.57000000e+02 
527.603  5.89000000e+02 
527.567  5.72000000e+02 
527.531  6.32000000e+02 
527.495  5.45000000e+02 
527.459  5.84000000e+02 
527.423  5.59000000e+02 
527.387  5.65000000e+02 
527.351  5.87000000e+02 
527.315  5.51000000e+02 
527.280  5.96000000e+02 
527.244  5.98000000e+02 
527.208  5.92000000e+02 
527.172  5.80000000e+02 
527.136  5.36000000e+02 
527.100  5.47000000e+02 
527.064  5.52000000e+02 
527.028  5.87000000e+02 
[ Region 2 Curve ]
BEcenter= 643.000 
BEwidth= -14.938 
Excitation= 1486.600
Time_p_channel= 128.000 
Size= 417
650.469  6.14000000e+02 
650.433  5.79000000e+02 
650.397  5.65000000e+02 
650.361  5.42000000e+02 
650.325  5.71000000e+02 
650.289  5.68000000e+02 
650.253  5.55000000e+02 
650.217  5.95000000e+02 
650.181  5.94000000e+02 
650.146  5.80000000e+02 
650.110  5.62000000e+02 
650.074  5.70000000e+02 
650.038  5.96000000e+02 
650.002  5.94000000e+02 
649.966  5.83000000e+02 
649.930  5.66000000e+02 
649.894  5.67000000e+02 
649.858  5.69000000e+02 
649.822  5.95000000e+02 
649.787  5.86000000e+02 
649.751  5.68000000e+02 
649.715  5.86000000e+02 
649.679  5.94000000e+02 
649.643  5.92000000e+02 
649.607  5.58000000e+02 
649.571  5.89000000e+02 
649.535  5.83000000e+02 
649.499  5.41000000e+02 
649.463  5.85000000e+02 
649.427  5.53000000e+02 
649.392  5.88000000e+02 
649.356  6.15000000e+02 
649.320  6.40000000e+02 
649.284  5.58000000e+02 
649.248  5.07000000e+02 
649.212  5.82000000e+02 
649.176  5.77000000e+02 
649.140  5.59000000e+02 
649.104  5.60000000e+02 
649.068  5.11000000e+02 
649.032  5.86000000e+02 
648.997  5.37000000e+02 
648.961  5.96000000e+02 
648.925  5.85000000e+02 
648.889  5.75000000e+02 
648.853  5.93000000e+02 
648.817  6.09000000e+02 
648.781  5.83000000e+02 
648.745  5.65000000e+02 
648.709  6.24000000e+02 
648.673  6.06000000e+02 
648.637  5.19000000e+02 
648.602  5.73000000e+02 
648.566  5.74000000e+02 
648.530  5.83000000e+02 
648.494  5.75000000e+02 
648.458  5.99000000e+02 
648.422  5.46000000e+02 
648.386  6.26000000e+02 
648.350  5.75000000e+02 
648.314  5.71000000e+02 
648.278  5.59000000e+02 
648.242  5.53000000e+02 
648.207  5.77000000e+02 
648.171  5.57000000e+02 
648.135  5.42000000e+02 
648.099  5.89000000e+02 
648.063  5.96000000e+02 
648.027  5.55000000e+02 
647.991  5.85000000e+02 
647.955  6.19000000e+02 
647.919  5.71000000e+02 
647.883  5.90000000e+02 
647.848  6.02000000e+02 
647.812  6.20000000e+02 
647.776  6.08000000e+02 
647.740  5.51000000e+02 
647.704  5.62000000e+02 
647.668  5.78000000e+02 
647.632  6.27000000e+02 
647.596  5.68000000e+02 
647.560  5.80000000e+02 
647.524  5.84000000e+02 
647.488  5.60000000e+02 
647.453  5.88000000e+02 
647.417  5.88000000e+02 
647.381  5.67000000e+02 
647.345  5.49000000e+02 
647.309  5.94000000e+02 
647.273  5.92000000e+02 
647.237  5.33000000e+02 
647.201  5.45000000e+02 
647.165  5.62000000e+02 
647.129  6.01000000e+02 
647.093  5.53000000e+02 
647.058  6.15000000e+02 
647.022  5.77000000e+02 
646.986  5.92000000e+02 
646.950  5.60000000e+02 
646.914  5.59000000e+02 
646.878  5.56000000e+02 
646.842  5.41000000e+02 
646.806  6.18000000e+02 
646.770  5.43000000e+02 
646.734  5.66000000e+02 
646.698  5.37000000e+02 
646.663  6.03000000e+02 
646.627  5.68000000e+02 
646.591  5.84000000e+02 
646.555  5.64000000e+02 
646.519  5.56000000e+02 
646.483  5.69000000e+02 
646.447  5.48000000e+02 
646.411  5.86000000e+02 
646.375  5.55000000e+02 
646.339  5.79000000e+02 
646.303  6.27000000e+02 
646.268  5.82000000e+02 
646.232  6.13000000e+02 
646.196  6.01000000e+02 
646.160  6.00000000e+02 
646.124  5.34000000e+02 
646.088  5.55000000e+02 
646.052  5.67000000e+02 
646.016  5.82000000e+02 
645.980  5.62000000e+02 
645.944  5.95000000e+02 
645.909  5.54000000e+02 
645.873  5.28000000e+02 
645.837  5.58000000e+02 
645.801  5.72000000e+02 
645.765  6.08000000e+02 
645.729  5.45000000e+02 
645.693  5.61000000e+02 
645.657  5.70000000e+02 
645.621  5.08000000e+02 
645.585  5.57000000e+02 
645.549  6.01000000e+02 
645.514  5.70000000e+02 
645.478  6.06000000e+02 
645.442  5.99000000e+02 
645.406  5.62000000e+02 
645.370  6.27000000e+02 
645.334  5.89000000e+02 
645.298  5.74000000e+02 
645.262  5.59000000e+02 
645.226  5.67000000e+02 
645.190  5.62000000e+02 
645.154  5.87000000e+02 
645.119  5.42000000e+02 
645.083  5.62000000e+02 
645.047  6.03000000e+02 
645.011  5.60000000e+02 
644.975  5.75000000e+02 
644.939  6.04000000e+02 
644.903  6.11000000e+02 
644.867  5.83000000e+02 
644.831  5.29000000e+02 
644.795  6.20000000e+02 
644.759  5.51000000e+02 
644.724  5.75000000e+02 
644.688  5.70000000e+02 
644.652  6.04000000e+02 
644.616  5.33000000e+02 
644.580  5.73000000e+02 
644.544  5.86000000e+02 
644.508  5.95000000e+02 
644.472  5.71000000e+02 
644.436  6.04000000e+02 
644.400  6.03000000e+02 
644.364  5.81000000e+02 
644.329  5.81000000e+02 
644.293  5.56000000e+02 
644.257  5.51000000e+02 
644.221  5.56000000e+02 
644.185  5.66000000e+02 
644.149  6.11000000e+02 
644.113  5.36000000e+02 
644.077  6.09000000e+02 
644.041  5.47000000e+02 
644.005  5.56000000e+02 
643.970  6.01000000e+02 
643.934  5.44000000e+02 
643.898  5.76000000e+02 
643.862  5.59000000e+02 
643.826  6.09000000e+02 
643.790  6.09000000e+02 
643.754  5.79000000e+02 
643.718  5.89000000e+02 
643.682  6.01000000e+02 
643.646  5.84000000e+02 
643.610  5.85000000e+02 
643.575  5.25000000e+02 
643.539  5.75000000e+02 
643.503  5.81000000e+02 
643.467  5.76000000e+02 
643.431  6.11000000e+02 
643.395  5.65000000e+02 
643.359  5.92000000e+02 
643.323  6.08000000e+02 
643.287  5.95000000e+02 
643.251  5.95000000e+02 
643.215  5.72000000e+02 
643.180  5.62000000e+02 
643.144  5.82000000e+02 
643.108  5.58000000e+02 
643.072  5.50000000e+02 
643.036  5.46000000e+02 
643.000  5.86000000e+02 
642.964  5.66000000e+02 
642.928  5.68000000e+02 
642.892  5.71000000e+02 
642.856  5.90000000e+02 
642.820  5.63000000e+02 
642.785  5.87000000e+02 
642.749  5.62000000e+02 
642.713  5.63000000e+02 
642.677  5.22000000e+02 
642.641  5.25000000e+02 
642.605  5.86000000e+02 
642.569  5.47000000e+02 
642.533  5.99000000e+02 
642.497  5.68000000e+02 
642.461  5.56000000e+02 
642.425  5.70000000e+02 
642.390  5.78000000e+02 
642.354  5.58000000e+02 
642.318  5.71000000e+02 
642.282  5.55000000e+02 
642.246  5.73000000e+02 
642.210  5.60000000e+02 
642.174  5.88000000e+02 
642.138  5.84000000e+02 
642.102  5.52000000e+02 
642.066  5.69000000e+02 
642.030  5.61000000e+02 
641.995  5.69000000e+02 
641.959  5.96000000e+02 
641.923  5.72000000e+02 
641.887  5.76000000e+02 
641.851  6.42000000e+02 
641.815  6.06000000e+02 
641.779  5.79000000e+02 
641.743  5.86000000e+02 
641.707  5.60000000e+02 
641.671  6.00000000e+02 
641.636  5.65000000e+02 
641.600  5.70000000e+02 
641.564  5.83000000e+02 
641.528  6.23000000e+02 
641.492  6.13000000e+02 
641.456  6.37000000e+02 
641.420  5.65000000e+02 
641.384  5.62000000e+02 
641.348  6.59000000e+02 
641.312  5.61000000e+02 
641.276  5.70000000e+02 
641.241  5.96000000e+02 
641.205  5.89000000e+02 
641.169  5.63000000e+02 
641.133  6.02000000e+02 
641.097  5.83000000e+02 
641.061  5.85000000e+02 
641.025  5.44000000e+02 
640.989  5.50000000e+02 
640.953  5.90000000e+02 
640.917  5.63000000e+02 
640.881  5.63000000e+02 
640.846  5.66000000e+02 
640.810  5.97000000e+02 
640.774  5.00000000e+02 
640.738  5.90000000e+02 
640.702  5.86000000e+02 
640.666  5.46000000e+02 
640.630  5.52000000e+02 
640.594  5.68000000e+02 
640.558  5.85000000e+02 
640.522  5.99000000e+02 
640.486  5.43000000e+02 
640.451  5.73000000e+02 
640.415  5.58000000e+02 
640.379  5.85000000e+02 
640.343  5.73000000e+02 
640.307  5.56000000e+02 
640.271  5.58000000e+02 
640.235  6.01000000e+02 
640.199  6.13000000e+02 
640.163  5.47000000e+02 
640.127  6.34000000e+02 
640.091  5.86000000e+02 
640.056  5.57000000e+02 
640.020  5.39000000e+02 
639.984  5.32000000e+02 
639.948  5.93000000e+02 
639.912  5.73000000e+02 
639.876  5.83000000e+02 
639.840  5.49000000e+02 
639.804  5.96000000e+02 
639.768  5.70000000e+02 
639.732  5.47000000e+02 
639.697  5.85000000e+02 
639.661  5.57000000e+02 
639.625  6.21000000e+02 
639.589  5.73000000e+02 
639.553  5.80000000e+02 
639.517  5.34000000e+02 
639.481  5.88000000e+02 
639.445  5.72000000e+02 
639.409  5.65000000e+02 
639.373  5.92000000e+02 
639.337  5.88000000e+02 
639.302  5.79000000e+02 
639.266  5.41000000e+02 
639.230  5.34000000e+02 
639.194  5.96000000e+02 
639.158  5.68000000e+02 
639.122  5.82000000e+02 
639.086  5.48000000e+02 
639.050  5.61000000e+02 
639.014  5.72000000e+02 
638.978  5.54000000e+02 
638.942  6.04000000e+02 
638.907  5.79000000e+02 
638.871  5.20000000e+02 
638.835  5.83000000e+02 
638.799  5.53000000e+02 
638.763  6.33000000e+02 
638.727  5.34000000e+02 
638.691  5.44000000e+02 
638.655  5.84000000e+02 
638.619  5.32000000e+02 
638.583  5.82000000e+02 
638.547  5.72000000e+02 
638.512  5.92000000e+02 
638.476  5.89000000e+02 
638.440  5.65000000e+02 
638.404  5.56000000e+02 
638.368  5.82000000e+02 
638.332  5.67000000e+02 
638.296  5.97000000e+02 
638.260  5.60000000e+02 
638.224  5.78000000e+02 
638.188  5.36000000e+02 
638.152  5.82000000e+02 
638.117  6.19000000e+02 
638.081  5.84000000e+02 
638.045  5.42000000e+02 
638.009  5.68000000e+02 
637.973  5.84000000e+02 
637.937  5.62000000e+02 
637.901  5.91000000e+02 
637.865  5.46000000e+02 
637.829  5.65000000e+02 
637.793  5.45000000e+02 
637.758  5.65000000e+02 
637.722  5.90000000e+02 
637.686  5.61000000e+02 
637.650  5.69000000e+02 
637.614  6.05000000e+02 
637.578  5.95000000e+02 
637.542  5.59000000e+02 
637.506  5.73000000e+02 
637.470  5.66000000e+02 
637.434  6.05000000e+02 
637.398  6.03000000e+02 
637.363  5.30000000e+02 
637.327  5.82000000e+02 
637.291  5.82000000e+02 
637.255  5.73000000e+02 
637.219  6.12000000e+02 
637.183  5.71000000e+02 
637.147  6.12000000e+02 
637.111  5.84000000e+02 
637.075  5.29000000e+02 
637.039  5.60000000e+02 
637.003  5.52000000e+02 
636.968  5.72000000e+02 
636.932  5.68000000e+02 
636.896  6.05000000e+02 
636.860  5.48000000e+02 
636.824  5.79000000e+02 
636.788  6.06000000e+02 
636.752  5.99000000e+02 
636.716  6.01000000e+02 
636.680  5.86000000e+02 
636.644  5.35000000e+02 
636.608  5.33000000e+02 
636.573  5.79000000e+02 
636.537  5.90000000e+02 
636.501  5.48000000e+02 
636.465  5.77000000e+02 
636.429  5.60000000e+02 
636.393  5.61000000e+02 
636.357  5.99000000e+02 
636.321  5.95000000e+02 
636.285  5.66000000e+02 
636.249  5.98000000e+02 
636.213  5.75000000e+02 
636.178  5.46000000e+02 
636.142  6.01000000e+02 
636.106  6.01000000e+02 
636.070  5.71000000e+02 
636.034  5.95000000e+02 
635.998  5.73000000e+02 
635.962  5.65000000e+02 
635.926  5.99000000e+02 
635.890  5.57000000e+02 
635.854  5.56000000e+02 
635.819  6.02000000e+02 
635.783  5.67000000e+02 
635.747  5.79000000e+02 
635.711  5.77000000e+02 
635.675  5.99000000e+02 
635.639  5.54000000e+02 
635.603  6.13000000e+02 
635.567  6.11000000e+02 
635.531  5.61000000e+02 
