[ Experiment Parameters ]
Experiment Description= C1s mono = 8.25 +-1 , takeoff=-40,-30...40 
Number_of_Regions_in_Experiment= 9 

Original_File_name= c:\alexesca\data\97071014.xps 
Instrument= ESCA-West
Date= 07-10-1997
Time=  10:45:53

[ Region 1 Parameters ]
Region_Description = C 1s    dithered                           
BEcenter(eV) = 284.000000
BEwidth(eV) = 10.000000
BEstep(eV) = 0.071875
Dwell_Time(sec) = 1.000000
N_o_scans = 1  
N_o_Channels = 139  
Excitation_Energy = 0.000000  
Scan_mode = 0  (DITHERED)

[ Region 2 Parameters ]
Region_Description = C 1s    dithered                           
BEcenter(eV) = 284.000000
BEwidth(eV) = 10.000000
BEstep(eV) = 0.071875
Dwell_Time(sec) = 1.000000
N_o_scans = 1  
N_o_Channels = 139  
Excitation_Energy = 0.000000  
Scan_mode = 0  (DITHERED)

[ Region 3 Parameters ]
Region_Description = C 1s    dithered                           
BEcenter(eV) = 284.000000
BEwidth(eV) = 10.000000
BEstep(eV) = 0.071875
Dwell_Time(sec) = 1.000000
N_o_scans = 1  
N_o_Channels = 139  
Excitation_Energy = 0.000000  
Scan_mode = 0  (DITHERED)

[ Region 4 Parameters ]
Region_Description = C 1s    dithered                           
BEcenter(eV) = 284.000000
BEwidth(eV) = 10.000000
BEstep(eV) = 0.071875
Dwell_Time(sec) = 1.000000
N_o_scans = 1  
N_o_Channels = 139  
Excitation_Energy = 0.000000  
Scan_mode = 0  (DITHERED)

[ Region 5 Parameters ]
Region_Description = C 1s    dithered                           
BEcenter(eV) = 284.000000
BEwidth(eV) = 10.000000
BEstep(eV) = 0.071875
Dwell_Time(sec) = 1.000000
N_o_scans = 1  
N_o_Channels = 139  
Excitation_Energy = 0.000000  
Scan_mode = 0  (DITHERED)

[ Region 6 Parameters ]
Region_Description = C 1s    dithered                           
BEcenter(eV) = 284.000000
BEwidth(eV) = 10.000000
BEstep(eV) = 0.071875
Dwell_Time(sec) = 1.000000
N_o_scans = 1  
N_o_Channels = 139  
Excitation_Energy = 0.000000  
Scan_mode = 0  (DITHERED)

[ Region 7 Parameters ]
Region_Description = C 1s    dithered                           
BEcenter(eV) = 284.000000
BEwidth(eV) = 10.000000
BEstep(eV) = 0.071875
Dwell_Time(sec) = 1.000000
N_o_scans = 1  
N_o_Channels = 139  
Excitation_Energy = 0.000000  
Scan_mode = 0  (DITHERED)

[ Region 8 Parameters ]
Region_Description = C 1s    dithered                           
BEcenter(eV) = 284.000000
BEwidth(eV) = 10.000000
BEstep(eV) = 0.071875
Dwell_Time(sec) = 1.000000
N_o_scans = 1  
N_o_Channels = 139  
Excitation_Energy = 0.000000  
Scan_mode = 0  (DITHERED)

[ Region 9 Parameters ]
Region_Description = C 1s    dithered                           
BEcenter(eV) = 284.000000
BEwidth(eV) = 10.000000
BEstep(eV) = 0.071875
Dwell_Time(sec) = 1.000000
N_o_scans = 1  
N_o_Channels = 139  
Excitation_Energy = 0.000000  
Scan_mode = 0  (DITHERED)

[ Region 1 Curve ]
BEcenter= 284.000 
BEwidth= -9.898  
Excitation= 1486.600
Time_p_channel= 512.000 
Size= 139
288.949  2.89000000e+02 
288.877  3.47000000e+02 
288.806  3.32000000e+02 
288.734  3.08000000e+02 
288.662  3.32000000e+02 
288.591  3.36000000e+02 
288.519  2.90000000e+02 
288.447  3.24000000e+02 
288.375  3.08000000e+02 
288.304  3.22000000e+02 
288.232  3.00000000e+02 
288.160  3.41000000e+02 
288.088  3.34000000e+02 
288.017  3.21000000e+02 
287.945  3.12000000e+02 
287.873  3.02000000e+02 
287.802  3.49000000e+02 
287.730  3.52000000e+02 
287.658  3.12000000e+02 
287.586  3.55000000e+02 
287.515  3.81000000e+02 
287.443  3.85000000e+02 
287.371  3.72000000e+02 
287.299  3.74000000e+02 
287.228  3.77000000e+02 
287.156  4.11000000e+02 
287.084  4.11000000e+02 
287.013  3.94000000e+02 
286.941  4.65000000e+02 
286.869  4.49000000e+02 
286.797  4.60000000e+02 
286.726  4.71000000e+02 
286.654  4.49000000e+02 
286.582  4.39000000e+02 
286.510  4.99000000e+02 
286.439  4.86000000e+02 
286.367  5.19000000e+02 
286.295  5.34000000e+02 
286.224  5.07000000e+02 
286.152  5.76000000e+02 
286.080  6.08000000e+02 
286.008  5.73000000e+02 
285.937  6.02000000e+02 
285.865  6.48000000e+02 
285.793  6.10000000e+02 
285.721  6.18000000e+02 
285.650  6.58000000e+02 
285.578  7.05000000e+02 
285.506  7.01000000e+02 
285.435  6.62000000e+02 
285.363  7.10000000e+02 
285.291  7.13000000e+02 
285.219  7.04000000e+02 
285.148  7.14000000e+02 
285.076  7.22000000e+02 
285.004  6.98000000e+02 
284.932  7.00000000e+02 
284.861  6.19000000e+02 
284.789  6.46000000e+02 
284.717  6.34000000e+02 
284.646  5.53000000e+02 
284.574  5.98000000e+02 
284.502  5.55000000e+02 
284.430  5.26000000e+02 
284.359  5.20000000e+02 
284.287  5.03000000e+02 
284.215  4.55000000e+02 
284.143  4.29000000e+02 
284.072  4.19000000e+02 
284.000  3.68000000e+02 
283.928  3.95000000e+02 
283.857  3.40000000e+02 
283.785  3.50000000e+02 
283.713  3.36000000e+02 
283.641  3.28000000e+02 
283.570  3.20000000e+02 
283.498  3.42000000e+02 
283.426  3.11000000e+02 
283.354  2.77000000e+02 
283.283  3.17000000e+02 
283.211  3.14000000e+02 
283.139  2.84000000e+02 
283.068  3.17000000e+02 
282.996  3.29000000e+02 
282.924  3.08000000e+02 
282.852  3.04000000e+02 
282.781  3.36000000e+02 
282.709  2.78000000e+02 
282.637  3.16000000e+02 
282.565  3.33000000e+02 
282.494  3.30000000e+02 
282.422  2.90000000e+02 
282.350  3.31000000e+02 
282.279  2.93000000e+02 
282.207  2.95000000e+02 
282.135  2.95000000e+02 
282.063  2.71000000e+02 
281.992  2.82000000e+02 
281.920  2.91000000e+02 
281.848  3.03000000e+02 
281.776  2.91000000e+02 
281.705  2.66000000e+02 
281.633  2.90000000e+02 
281.561  2.90000000e+02 
281.490  3.02000000e+02 
281.418  2.67000000e+02 
281.346  2.94000000e+02 
281.274  3.12000000e+02 
281.203  3.01000000e+02 
281.131  3.07000000e+02 
281.059  2.71000000e+02 
280.987  2.86000000e+02 
280.916  3.16000000e+02 
280.844  3.14000000e+02 
280.772  2.96000000e+02 
280.701  3.10000000e+02 
280.629  2.84000000e+02 
280.557  2.65000000e+02 
280.485  2.95000000e+02 
280.414  2.57000000e+02 
280.342  2.87000000e+02 
280.270  3.26000000e+02 
280.198  2.77000000e+02 
280.127  2.96000000e+02 
280.055  2.99000000e+02 
279.983  3.04000000e+02 
279.912  2.73000000e+02 
279.840  2.97000000e+02 
279.768  3.43000000e+02 
279.696  2.68000000e+02 
279.625  3.17000000e+02 
279.553  3.01000000e+02 
279.481  2.97000000e+02 
279.409  2.72000000e+02 
279.338  2.66000000e+02 
279.266  2.81000000e+02 
279.194  3.00000000e+02 
279.123  2.87000000e+02 
279.051  2.64000000e+02 
[ Region 2 Curve ]
BEcenter= 284.000 
BEwidth= -9.898  
Excitation= 1486.600
Time_p_channel= 512.000 
Size= 139
288.949  5.55000000e+02 
288.877  6.24000000e+02 
288.806  6.04000000e+02 
288.734  6.00000000e+02 
288.662  5.78000000e+02 
288.591  6.13000000e+02 
288.519  5.82000000e+02 
288.447  6.25000000e+02 
288.375  6.33000000e+02 
288.304  6.30000000e+02 
288.232  5.95000000e+02 
288.160  5.86000000e+02 
288.088  6.37000000e+02 
288.017  6.08000000e+02 
287.945  6.40000000e+02 
287.873  5.72000000e+02 
287.802  6.05000000e+02 
287.730  6.20000000e+02 
287.658  6.52000000e+02 
287.586  6.36000000e+02 
287.515  6.88000000e+02 
287.443  6.82000000e+02 
287.371  6.70000000e+02 
287.299  6.98000000e+02 
287.228  7.06000000e+02 
287.156  6.73000000e+02 
287.084  7.68000000e+02 
287.013  7.32000000e+02 
286.941  7.17000000e+02 
286.869  7.76000000e+02 
286.797  8.85000000e+02 
286.726  7.86000000e+02 
286.654  8.35000000e+02 
286.582  8.94000000e+02 
286.510  8.46000000e+02 
286.439  9.16000000e+02 
286.367  8.79000000e+02 
286.295  9.40000000e+02 
286.224  9.33000000e+02 
286.152  9.72000000e+02 
286.080  1.00900000e+03 
286.008  1.02000000e+03 
285.937  1.05200000e+03 
285.865  1.07300000e+03 
285.793  1.12000000e+03 
285.721  1.16100000e+03 
285.650  1.12600000e+03 
285.578  1.14000000e+03 
285.506  1.24100000e+03 
285.435  1.18500000e+03 
285.363  1.28600000e+03 
285.291  1.34500000e+03 
285.219  1.35200000e+03 
285.148  1.23100000e+03 
285.076  1.27300000e+03 
285.004  1.25400000e+03 
284.932  1.27000000e+03 
284.861  1.27900000e+03 
284.789  1.11500000e+03 
284.717  1.16500000e+03 
284.646  1.09000000e+03 
284.574  1.07900000e+03 
284.502  1.07500000e+03 
284.430  9.73000000e+02 
284.359  9.98000000e+02 
284.287  9.29000000e+02 
284.215  8.81000000e+02 
284.143  8.38000000e+02 
284.072  7.54000000e+02 
284.000  7.79000000e+02 
283.928  7.07000000e+02 
283.857  6.81000000e+02 
283.785  6.72000000e+02 
283.713  6.60000000e+02 
283.641  6.35000000e+02 
283.570  5.90000000e+02 
283.498  6.07000000e+02 
283.426  6.19000000e+02 
283.354  6.18000000e+02 
283.283  6.08000000e+02 
283.211  5.67000000e+02 
283.139  5.80000000e+02 
283.068  5.47000000e+02 
282.996  6.17000000e+02 
282.924  5.76000000e+02 
282.852  5.92000000e+02 
282.781  5.29000000e+02 
282.709  5.36000000e+02 
282.637  5.75000000e+02 
282.565  5.26000000e+02 
282.494  5.73000000e+02 
282.422  5.29000000e+02 
282.350  5.57000000e+02 
282.279  5.76000000e+02 
282.207  5.48000000e+02 
282.135  5.88000000e+02 
282.063  5.59000000e+02 
281.992  5.30000000e+02 
281.920  5.12000000e+02 
281.848  5.80000000e+02 
281.776  5.14000000e+02 
281.705  5.81000000e+02 
281.633  5.54000000e+02 
281.561  5.48000000e+02 
281.490  5.34000000e+02 
281.418  5.37000000e+02 
281.346  5.64000000e+02 
281.274  5.45000000e+02 
281.203  5.70000000e+02 
281.131  5.17000000e+02 
281.059  5.65000000e+02 
280.987  5.67000000e+02 
280.916  5.55000000e+02 
280.844  5.14000000e+02 
280.772  5.31000000e+02 
280.701  5.28000000e+02 
280.629  5.41000000e+02 
280.557  5.26000000e+02 
280.485  5.70000000e+02 
280.414  5.38000000e+02 
280.342  5.09000000e+02 
280.270  5.34000000e+02 
280.198  5.09000000e+02 
280.127  5.27000000e+02 
280.055  5.22000000e+02 
279.983  5.36000000e+02 
279.912  5.46000000e+02 
279.840  5.18000000e+02 
279.768  5.79000000e+02 
279.696  5.62000000e+02 
279.625  5.48000000e+02 
279.553  5.40000000e+02 
279.481  5.58000000e+02 
279.409  5.71000000e+02 
279.338  5.50000000e+02 
279.266  5.75000000e+02 
279.194  5.38000000e+02 
279.123  5.02000000e+02 
279.051  5.19000000e+02 
[ Region 3 Curve ]
BEcenter= 284.000 
BEwidth= -9.898  
Excitation= 1486.600
Time_p_channel= 512.000 
Size= 139
288.949  9.32000000e+02 
288.877  9.50000000e+02 
288.806  9.38000000e+02 
288.734  9.20000000e+02 
288.662  9.08000000e+02 
288.591  9.59000000e+02 
288.519  9.38000000e+02 
288.447  9.00000000e+02 
288.375  1.03100000e+03 
288.304  9.79000000e+02 
288.232  9.24000000e+02 
288.160  9.83000000e+02 
288.088  9.32000000e+02 
288.017  9.56000000e+02 
287.945  9.63000000e+02 
287.873  1.00800000e+03 
287.802  1.01300000e+03 
287.730  9.95000000e+02 
287.658  1.01000000e+03 
287.586  1.01900000e+03 
287.515  1.04000000e+03 
287.443  1.02800000e+03 
287.371  1.02700000e+03 
287.299  1.02900000e+03 
287.228  1.07500000e+03 
287.156  1.06100000e+03 
287.084  1.05800000e+03 
287.013  1.12100000e+03 
286.941  1.17600000e+03 
286.869  1.17300000e+03 
286.797  1.17900000e+03 
286.726  1.21400000e+03 
286.654  1.25400000e+03 
286.582  1.28600000e+03 
286.510  1.29400000e+03 
286.439  1.37100000e+03 
286.367  1.30200000e+03 
286.295  1.35300000e+03 
286.224  1.41900000e+03 
286.152  1.47000000e+03 
286.080  1.46500000e+03 
286.008  1.52600000e+03 
285.937  1.52200000e+03 
285.865  1.50500000e+03 
285.793  1.63800000e+03 
285.721  1.62300000e+03 
285.650  1.73900000e+03 
285.578  1.77000000e+03 
285.506  1.74800000e+03 
285.435  1.84000000e+03 
285.363  1.84000000e+03 
285.291  1.92100000e+03 
285.219  1.98000000e+03 
285.148  1.96900000e+03 
285.076  2.02400000e+03 
285.004  1.99800000e+03 
284.932  1.97000000e+03 
284.861  2.02500000e+03 
284.789  1.88800000e+03 
284.717  1.92100000e+03 
284.646  1.81400000e+03 
284.574  1.76400000e+03 
284.502  1.65200000e+03 
284.430  1.63000000e+03 
284.359  1.53900000e+03 
284.287  1.45800000e+03 
284.215  1.41600000e+03 
284.143  1.33400000e+03 
284.072  1.35000000e+03 
284.000  1.25200000e+03 
283.928  1.13200000e+03 
283.857  1.08100000e+03 
283.785  1.05100000e+03 
283.713  1.11900000e+03 
283.641  1.01500000e+03 
283.570  9.88000000e+02 
283.498  9.67000000e+02 
283.426  9.12000000e+02 
283.354  9.73000000e+02 
283.283  9.56000000e+02 
283.211  8.65000000e+02 
283.139  9.56000000e+02 
283.068  8.38000000e+02 
282.996  8.86000000e+02 
282.924  8.68000000e+02 
282.852  9.27000000e+02 
282.781  8.98000000e+02 
282.709  9.64000000e+02 
282.637  8.51000000e+02 
282.565  8.56000000e+02 
282.494  8.79000000e+02 
282.422  8.71000000e+02 
282.350  9.18000000e+02 
282.279  9.13000000e+02 
282.207  8.67000000e+02 
282.135  8.66000000e+02 
282.063  8.70000000e+02 
281.992  8.74000000e+02 
281.920  8.81000000e+02 
281.848  8.56000000e+02 
281.776  8.55000000e+02 
281.705  8.59000000e+02 
281.633  8.87000000e+02 
281.561  8.34000000e+02 
281.490  8.24000000e+02 
281.418  8.67000000e+02 
281.346  9.21000000e+02 
281.274  8.85000000e+02 
281.203  8.72000000e+02 
281.131  9.05000000e+02 
281.059  8.35000000e+02 
280.987  8.33000000e+02 
280.916  8.59000000e+02 
280.844  8.61000000e+02 
280.772  8.46000000e+02 
280.701  8.43000000e+02 
280.629  9.01000000e+02 
280.557  8.42000000e+02 
280.485  8.67000000e+02 
280.414  8.77000000e+02 
280.342  8.37000000e+02 
280.270  8.92000000e+02 
280.198  8.82000000e+02 
280.127  8.40000000e+02 
280.055  8.41000000e+02 
279.983  8.75000000e+02 
279.912  8.03000000e+02 
279.840  8.45000000e+02 
279.768  8.58000000e+02 
279.696  8.53000000e+02 
279.625  8.59000000e+02 
279.553  8.31000000e+02 
279.481  9.16000000e+02 
279.409  8.82000000e+02 
279.338  8.78000000e+02 
279.266  8.89000000e+02 
279.194  8.65000000e+02 
279.123  8.39000000e+02 
279.051  8.69000000e+02 
[ Region 4 Curve ]
BEcenter= 284.000 
BEwidth= -9.898  
Excitation= 1486.600
Time_p_channel= 512.000 
Size= 139
288.949  1.23500000e+03 
288.877  1.23000000e+03 
288.806  1.26500000e+03 
288.734  1.27200000e+03 
288.662  1.24100000e+03 
288.591  1.32200000e+03 
288.519  1.26400000e+03 
288.447  1.26300000e+03 
288.375  1.18700000e+03 
288.304  1.24700000e+03 
288.232  1.24800000e+03 
288.160  1.27200000e+03 
288.088  1.26900000e+03 
288.017  1.30100000e+03 
287.945  1.31300000e+03 
287.873  1.31800000e+03 
287.802  1.28500000e+03 
287.730  1.24700000e+03 
287.658  1.31600000e+03 
287.586  1.28700000e+03 
287.515  1.33300000e+03 
287.443  1.33700000e+03 
287.371  1.38400000e+03 
287.299  1.41600000e+03 
287.228  1.35100000e+03 
287.156  1.41700000e+03 
287.084  1.42400000e+03 
287.013  1.45300000e+03 
286.941  1.46000000e+03 
286.869  1.52800000e+03 
286.797  1.60700000e+03 
286.726  1.60700000e+03 
286.654  1.59200000e+03 
286.582  1.62000000e+03 
286.510  1.60100000e+03 
286.439  1.68600000e+03 
286.367  1.69700000e+03 
286.295  1.79600000e+03 
286.224  1.86400000e+03 
286.152  1.80400000e+03 
286.080  1.85700000e+03 
286.008  1.86200000e+03 
285.937  2.03000000e+03 
285.865  2.07800000e+03 
285.793  2.06900000e+03 
285.721  2.16000000e+03 
285.650  2.20200000e+03 
285.578  2.21700000e+03 
285.506  2.24300000e+03 
285.435  2.35000000e+03 
285.363  2.27200000e+03 
285.291  2.30200000e+03 
285.219  2.39200000e+03 
285.148  2.51300000e+03 
285.076  2.39200000e+03 
285.004  2.47100000e+03 
284.932  2.50800000e+03 
284.861  2.41900000e+03 
284.789  2.48300000e+03 
284.717  2.46400000e+03 
284.646  2.32700000e+03 
284.574  2.34900000e+03 
284.502  2.34700000e+03 
284.430  2.25500000e+03 
284.359  2.12700000e+03 
284.287  2.12400000e+03 
284.215  2.01000000e+03 
284.143  1.82400000e+03 
284.072  1.82300000e+03 
284.000  1.61300000e+03 
283.928  1.61500000e+03 
283.857  1.57600000e+03 
283.785  1.48400000e+03 
283.713  1.52400000e+03 
283.641  1.36100000e+03 
283.570  1.44400000e+03 
283.498  1.29500000e+03 
283.426  1.26800000e+03 
283.354  1.28200000e+03 
283.283  1.32100000e+03 
283.211  1.23200000e+03 
283.139  1.15400000e+03 
283.068  1.19700000e+03 
282.996  1.15800000e+03 
282.924  1.13100000e+03 
282.852  1.17800000e+03 
282.781  1.16700000e+03 
282.709  1.18200000e+03 
282.637  1.18800000e+03 
282.565  1.11800000e+03 
282.494  1.12900000e+03 
282.422  1.21500000e+03 
282.350  1.13400000e+03 
282.279  1.12500000e+03 
282.207  1.12000000e+03 
282.135  1.19900000e+03 
282.063  1.14700000e+03 
281.992  1.18100000e+03 
281.920  1.11800000e+03 
281.848  1.14800000e+03 
281.776  1.09400000e+03 
281.705  1.15900000e+03 
281.633  1.14900000e+03 
281.561  1.17600000e+03 
281.490  1.19300000e+03 
281.418  1.19200000e+03 
281.346  1.11900000e+03 
281.274  1.17500000e+03 
281.203  1.15200000e+03 
281.131  1.19800000e+03 
281.059  1.17000000e+03 
280.987  1.18700000e+03 
280.916  1.20500000e+03 
280.844  1.15400000e+03 
280.772  1.14700000e+03 
280.701  1.14700000e+03 
280.629  1.13900000e+03 
280.557  1.16100000e+03 
280.485  1.16400000e+03 
280.414  1.16200000e+03 
280.342  1.18100000e+03 
280.270  1.14400000e+03 
280.198  1.13600000e+03 
280.127  1.17700000e+03 
280.055  1.11100000e+03 
279.983  1.14100000e+03 
279.912  1.16300000e+03 
279.840  1.16000000e+03 
279.768  1.14200000e+03 
279.696  1.14200000e+03 
279.625  1.19500000e+03 
279.553  1.17500000e+03 
279.481  1.12100000e+03 
279.409  1.20700000e+03 
279.338  1.19900000e+03 
279.266  1.15100000e+03 
279.194  1.21200000e+03 
279.123  1.12500000e+03 
279.051  1.15000000e+03 
[ Region 5 Curve ]
BEcenter= 284.000 
BEwidth= -9.898  
Excitation= 1486.600
Time_p_channel= 512.000 
Size= 139
288.949  1.58100000e+03 
288.877  1.58100000e+03 
288.806  1.56500000e+03 
288.734  1.70300000e+03 
288.662  1.56000000e+03 
288.591  1.57700000e+03 
288.519  1.65300000e+03 
288.447  1.64100000e+03 
288.375  1.66200000e+03 
288.304  1.59400000e+03 
288.232  1.63300000e+03 
288.160  1.67500000e+03 
288.088  1.60100000e+03 
288.017  1.67300000e+03 
287.945  1.69900000e+03 
287.873  1.70700000e+03 
287.802  1.59900000e+03 
287.730  1.69300000e+03 
287.658  1.68100000e+03 
287.586  1.67100000e+03 
287.515  1.69000000e+03 
287.443  1.67100000e+03 
287.371  1.75200000e+03 
287.299  1.66300000e+03 
287.228  1.78600000e+03 
287.156  1.65900000e+03 
287.084  1.72800000e+03 
287.013  1.76300000e+03 
286.941  1.82500000e+03 
286.869  1.71600000e+03 
286.797  1.85900000e+03 
286.726  1.89000000e+03 
286.654  1.97900000e+03 
286.582  1.92200000e+03 
286.510  2.03200000e+03 
286.439  2.06500000e+03 
286.367  2.07700000e+03 
286.295  2.20200000e+03 
286.224  2.17200000e+03 
286.152  2.29100000e+03 
286.080  2.26800000e+03 
286.008  2.24100000e+03 
285.937  2.35300000e+03 
285.865  2.33800000e+03 
285.793  2.48100000e+03 
285.721  2.45200000e+03 
285.650  2.58300000e+03 
285.578  2.51400000e+03 
285.506  2.68600000e+03 
285.435  2.71800000e+03 
285.363  2.81600000e+03 
285.291  2.82200000e+03 
285.219  2.88200000e+03 
285.148  2.97500000e+03 
285.076  2.95600000e+03 
285.004  2.96600000e+03 
284.932  3.02900000e+03 
284.861  3.04200000e+03 
284.789  3.07700000e+03 
284.717  3.08400000e+03 
284.646  2.99200000e+03 
284.574  2.95800000e+03 
284.502  2.95500000e+03 
284.430  2.83000000e+03 
284.359  2.78900000e+03 
284.287  2.71400000e+03 
284.215  2.69500000e+03 
284.143  2.63700000e+03 
284.072  2.67600000e+03 
284.000  2.40700000e+03 
283.928  2.25800000e+03 
283.857  2.26900000e+03 
283.785  2.14300000e+03 
283.713  2.03900000e+03 
283.641  2.04100000e+03 
283.570  1.92400000e+03 
283.498  1.89000000e+03 
283.426  1.83300000e+03 
283.354  1.69600000e+03 
283.283  1.70200000e+03 
283.211  1.68700000e+03 
283.139  1.59500000e+03 
283.068  1.52900000e+03 
282.996  1.57100000e+03 
282.924  1.54700000e+03 
282.852  1.44200000e+03 
282.781  1.58400000e+03 
282.709  1.50500000e+03 
282.637  1.50900000e+03 
282.565  1.55000000e+03 
282.494  1.45200000e+03 
282.422  1.50100000e+03 
282.350  1.43800000e+03 
282.279  1.49800000e+03 
282.207  1.48100000e+03 
282.135  1.51500000e+03 
282.063  1.45300000e+03 
281.992  1.45000000e+03 
281.920  1.43700000e+03 
281.848  1.42000000e+03 
281.776  1.49800000e+03 
281.705  1.46300000e+03 
281.633  1.43300000e+03 
281.561  1.43800000e+03 
281.490  1.39400000e+03 
281.418  1.47000000e+03 
281.346  1.57200000e+03 
281.274  1.49900000e+03 
281.203  1.48100000e+03 
281.131  1.48900000e+03 
281.059  1.55400000e+03 
280.987  1.52400000e+03 
280.916  1.47400000e+03 
280.844  1.52700000e+03 
280.772  1.50800000e+03 
280.701  1.50600000e+03 
280.629  1.47200000e+03 
280.557  1.55500000e+03 
280.485  1.45800000e+03 
280.414  1.47100000e+03 
280.342  1.46800000e+03 
280.270  1.46000000e+03 
280.198  1.51000000e+03 
280.127  1.47600000e+03 
280.055  1.42700000e+03 
279.983  1.50400000e+03 
279.912  1.48100000e+03 
279.840  1.45200000e+03 
279.768  1.52700000e+03 
279.696  1.52800000e+03 
279.625  1.44700000e+03 
279.553  1.36500000e+03 
279.481  1.45800000e+03 
279.409  1.53500000e+03 
279.338  1.49600000e+03 
279.266  1.50600000e+03 
279.194  1.46000000e+03 
279.123  1.45500000e+03 
279.051  1.48800000e+03 
[ Region 6 Curve ]
BEcenter= 284.000 
BEwidth= -9.898  
Excitation= 1486.600
Time_p_channel= 512.000 
Size= 139
288.949  1.90600000e+03 
288.877  1.83200000e+03 
288.806  1.82700000e+03 
288.734  1.91800000e+03 
288.662  1.92700000e+03 
288.591  1.87700000e+03 
288.519  1.86500000e+03 
288.447  1.83500000e+03 
288.375  1.85800000e+03 
288.304  1.85200000e+03 
288.232  1.83400000e+03 
288.160  1.91600000e+03 
288.088  1.94500000e+03 
288.017  1.88000000e+03 
287.945  1.94100000e+03 
287.873  1.87500000e+03 
287.802  1.86400000e+03 
287.730  1.99000000e+03 
287.658  1.99500000e+03 
287.586  1.93600000e+03 
287.515  1.88500000e+03 
287.443  1.99000000e+03 
287.371  2.00500000e+03 
287.299  2.00400000e+03 
287.228  1.99400000e+03 
287.156  1.93400000e+03 
287.084  2.00400000e+03 
287.013  2.07500000e+03 
286.941  2.13400000e+03 
286.869  2.01800000e+03 
286.797  2.11200000e+03 
286.726  2.22000000e+03 
286.654  2.23400000e+03 
286.582  2.30000000e+03 
286.510  2.29400000e+03 
286.439  2.30100000e+03 
286.367  2.39600000e+03 
286.295  2.35600000e+03 
286.224  2.36700000e+03 
286.152  2.49500000e+03 
286.080  2.49000000e+03 
286.008  2.55800000e+03 
285.937  2.65600000e+03 
285.865  2.65900000e+03 
285.793  2.73300000e+03 
285.721  2.78500000e+03 
285.650  2.90000000e+03 
285.578  2.92600000e+03 
285.506  2.86700000e+03 
285.435  3.02500000e+03 
285.363  3.04600000e+03 
285.291  3.14100000e+03 
285.219  3.25300000e+03 
285.148  3.25200000e+03 
285.076  3.30900000e+03 
285.004  3.37400000e+03 
284.932  3.40200000e+03 
284.861  3.44200000e+03 
284.789  3.54500000e+03 
284.717  3.44300000e+03 
284.646  3.56200000e+03 
284.574  3.38400000e+03 
284.502  3.47800000e+03 
284.430  3.44600000e+03 
284.359  3.46600000e+03 
284.287  3.39600000e+03 
284.215  3.35300000e+03 
284.143  3.24700000e+03 
284.072  3.11700000e+03 
284.000  3.02600000e+03 
283.928  3.02700000e+03 
283.857  2.85300000e+03 
283.785  2.76200000e+03 
283.713  2.73800000e+03 
283.641  2.70800000e+03 
283.570  2.44000000e+03 
283.498  2.47300000e+03 
283.426  2.39200000e+03 
283.354  2.20100000e+03 
283.283  2.07500000e+03 
283.211  2.07300000e+03 
283.139  2.10000000e+03 
283.068  1.98300000e+03 
282.996  1.93900000e+03 
282.924  1.88100000e+03 
282.852  1.88500000e+03 
282.781  1.86400000e+03 
282.709  1.80400000e+03 
282.637  1.87500000e+03 
282.565  1.84100000e+03 
282.494  1.80800000e+03 
282.422  1.82300000e+03 
282.350  1.76900000e+03 
282.279  1.85400000e+03 
282.207  1.81600000e+03 
282.135  1.72400000e+03 
282.063  1.79100000e+03 
281.992  1.75800000e+03 
281.920  1.75700000e+03 
281.848  1.82100000e+03 
281.776  1.80800000e+03 
281.705  1.72500000e+03 
281.633  1.68900000e+03 
281.561  1.79600000e+03 
281.490  1.76100000e+03 
281.418  1.80400000e+03 
281.346  1.78600000e+03 
281.274  1.73800000e+03 
281.203  1.80700000e+03 
281.131  1.81200000e+03 
281.059  1.76100000e+03 
280.987  1.79000000e+03 
280.916  1.76000000e+03 
280.844  1.80200000e+03 
280.772  1.82900000e+03 
280.701  1.75400000e+03 
280.629  1.77900000e+03 
280.557  1.78200000e+03 
280.485  1.75100000e+03 
280.414  1.75700000e+03 
280.342  1.75100000e+03 
280.270  1.72900000e+03 
280.198  1.79600000e+03 
280.127  1.69700000e+03 
280.055  1.74600000e+03 
279.983  1.73800000e+03 
279.912  1.82800000e+03 
279.840  1.69600000e+03 
279.768  1.74700000e+03 
279.696  1.71300000e+03 
279.625  1.71500000e+03 
279.553  1.73700000e+03 
279.481  1.81300000e+03 
279.409  1.73300000e+03 
279.338  1.68900000e+03 
279.266  1.76800000e+03 
279.194  1.72500000e+03 
279.123  1.76600000e+03 
279.051  1.79900000e+03 
[ Region 7 Curve ]
BEcenter= 284.000 
BEwidth= -9.898  
Excitation= 1486.600
Time_p_channel= 512.000 
Size= 139
288.949  1.95700000e+03 
288.877  1.91000000e+03 
288.806  2.02300000e+03 
288.734  2.02100000e+03 
288.662  2.06900000e+03 
288.591  2.00400000e+03 
288.519  2.00900000e+03 
288.447  2.00500000e+03 
288.375  2.05300000e+03 
288.304  2.08600000e+03 
288.232  2.09000000e+03 
288.160  2.02700000e+03 
288.088  2.01700000e+03 
288.017  1.99300000e+03 
287.945  1.95900000e+03 
287.873  2.03000000e+03 
287.802  1.98900000e+03 
287.730  2.02500000e+03 
287.658  2.03000000e+03 
287.586  1.98000000e+03 
287.515  2.07500000e+03 
287.443  2.05000000e+03 
287.371  2.07400000e+03 
287.299  2.03500000e+03 
287.228  2.11700000e+03 
287.156  2.15200000e+03 
287.084  2.11500000e+03 
287.013  2.20000000e+03 
286.941  2.17600000e+03 
286.869  2.16300000e+03 
286.797  2.22300000e+03 
286.726  2.21400000e+03 
286.654  2.28600000e+03 
286.582  2.25300000e+03 
286.510  2.35200000e+03 
286.439  2.31700000e+03 
286.367  2.43200000e+03 
286.295  2.46500000e+03 
286.224  2.52400000e+03 
286.152  2.48600000e+03 
286.080  2.60300000e+03 
286.008  2.68500000e+03 
285.937  2.72500000e+03 
285.865  2.64000000e+03 
285.793  2.76900000e+03 
285.721  2.81800000e+03 
285.650  2.88000000e+03 
285.578  3.04700000e+03 
285.506  2.98800000e+03 
285.435  3.08600000e+03 
285.363  3.22800000e+03 
285.291  3.13900000e+03 
285.219  3.20700000e+03 
285.148  3.22600000e+03 
285.076  3.38200000e+03 
285.004  3.43900000e+03 
284.932  3.42000000e+03 
284.861  3.58900000e+03 
284.789  3.37200000e+03 
284.717  3.56800000e+03 
284.646  3.56900000e+03 
284.574  3.51400000e+03 
284.502  3.71500000e+03 
284.430  3.59000000e+03 
284.359  3.63900000e+03 
284.287  3.54600000e+03 
284.215  3.58600000e+03 
284.143  3.46300000e+03 
284.072  3.37600000e+03 
284.000  3.41400000e+03 
283.928  3.42100000e+03 
283.857  3.22300000e+03 
283.785  3.19100000e+03 
283.713  3.00800000e+03 
283.641  2.95800000e+03 
283.570  2.80000000e+03 
283.498  2.78900000e+03 
283.426  2.62500000e+03 
283.354  2.58500000e+03 
283.283  2.40300000e+03 
283.211  2.44800000e+03 
283.139  2.30900000e+03 
283.068  2.32400000e+03 
282.996  2.18400000e+03 
282.924  2.14000000e+03 
282.852  2.02700000e+03 
282.781  2.10100000e+03 
282.709  2.09100000e+03 
282.637  1.98800000e+03 
282.565  1.98200000e+03 
282.494  1.91300000e+03 
282.422  1.94500000e+03 
282.350  1.99200000e+03 
282.279  1.87300000e+03 
282.207  1.86300000e+03 
282.135  1.89500000e+03 
282.063  1.89600000e+03 
281.992  1.87600000e+03 
281.920  1.79000000e+03 
281.848  1.90600000e+03 
281.776  1.87800000e+03 
281.705  1.90500000e+03 
281.633  1.91000000e+03 
281.561  1.94400000e+03 
281.490  1.89100000e+03 
281.418  1.83500000e+03 
281.346  1.90300000e+03 
281.274  1.86900000e+03 
281.203  1.90400000e+03 
281.131  1.87200000e+03 
281.059  1.88400000e+03 
280.987  1.82800000e+03 
280.916  1.86900000e+03 
280.844  1.84800000e+03 
280.772  1.81500000e+03 
280.701  1.91900000e+03 
280.629  1.88300000e+03 
280.557  1.78700000e+03 
280.485  1.82000000e+03 
280.414  1.89800000e+03 
280.342  1.83900000e+03 
280.270  1.84300000e+03 
280.198  1.81000000e+03 
280.127  1.91700000e+03 
280.055  1.86800000e+03 
279.983  1.89700000e+03 
279.912  1.88200000e+03 
279.840  1.87700000e+03 
279.768  1.81100000e+03 
279.696  1.96600000e+03 
279.625  1.87000000e+03 
279.553  1.89400000e+03 
279.481  1.87700000e+03 
279.409  1.84800000e+03 
279.338  1.85600000e+03 
279.266  1.81000000e+03 
279.194  1.87000000e+03 
279.123  1.87200000e+03 
279.051  1.86500000e+03 
[ Region 8 Curve ]
BEcenter= 284.000 
BEwidth= -9.898  
Excitation= 1486.600
Time_p_channel= 512.000 
Size= 139
288.949  1.78100000e+03 
288.877  1.73500000e+03 
288.806  1.75400000e+03 
288.734  1.81300000e+03 
288.662  1.82900000e+03 
288.591  1.80300000e+03 
288.519  1.72600000e+03 
288.447  1.71300000e+03 
288.375  1.79500000e+03 
288.304  1.83400000e+03 
288.232  1.73800000e+03 
288.160  1.87400000e+03 
288.088  1.80600000e+03 
288.017  1.80000000e+03 
287.945  1.78700000e+03 
287.873  1.82500000e+03 
287.802  1.82000000e+03 
287.730  1.80400000e+03 
287.658  1.78400000e+03 
287.586  1.88000000e+03 
287.515  1.82200000e+03 
287.443  1.89100000e+03 
287.371  1.88500000e+03 
287.299  1.83100000e+03 
287.228  1.89000000e+03 
287.156  1.84100000e+03 
287.084  1.90600000e+03 
287.013  1.86600000e+03 
286.941  1.92700000e+03 
286.869  1.94300000e+03 
286.797  1.91800000e+03 
286.726  1.95000000e+03 
286.654  2.01200000e+03 
286.582  2.02200000e+03 
286.510  1.93000000e+03 
286.439  2.07600000e+03 
286.367  2.13600000e+03 
286.295  2.11700000e+03 
286.224  2.11700000e+03 
286.152  2.20300000e+03 
286.080  2.22100000e+03 
286.008  2.27700000e+03 
285.937  2.31600000e+03 
285.865  2.39800000e+03 
285.793  2.41700000e+03 
285.721  2.50400000e+03 
285.650  2.50500000e+03 
285.578  2.61600000e+03 
285.506  2.59200000e+03 
285.435  2.67800000e+03 
285.363  2.76500000e+03 
285.291  2.68200000e+03 
285.219  2.85400000e+03 
285.148  2.87000000e+03 
285.076  2.82500000e+03 
285.004  2.93800000e+03 
284.932  2.97200000e+03 
284.861  2.95100000e+03 
284.789  2.96800000e+03 
284.717  2.97900000e+03 
284.646  3.07000000e+03 
284.574  3.14600000e+03 
284.502  2.98600000e+03 
284.430  3.03500000e+03 
284.359  3.10000000e+03 
284.287  3.05200000e+03 
284.215  3.09000000e+03 
284.143  3.01800000e+03 
284.072  3.00300000e+03 
284.000  2.94100000e+03 
283.928  2.89800000e+03 
283.857  2.79700000e+03 
283.785  2.82900000e+03 
283.713  2.76500000e+03 
283.641  2.70400000e+03 
283.570  2.56200000e+03 
283.498  2.56400000e+03 
283.426  2.46900000e+03 
283.354  2.35500000e+03 
283.283  2.26800000e+03 
283.211  2.21100000e+03 
283.139  2.10400000e+03 
283.068  2.08700000e+03 
282.996  1.95200000e+03 
282.924  1.95800000e+03 
282.852  1.91900000e+03 
282.781  1.85900000e+03 
282.709  1.83500000e+03 
282.637  1.85400000e+03 
282.565  1.82300000e+03 
282.494  1.76400000e+03 
282.422  1.65000000e+03 
282.350  1.72700000e+03 
282.279  1.74000000e+03 
282.207  1.73700000e+03 
282.135  1.66400000e+03 
282.063  1.65900000e+03 
281.992  1.63800000e+03 
281.920  1.73400000e+03 
281.848  1.72400000e+03 
281.776  1.73300000e+03 
281.705  1.66600000e+03 
281.633  1.70600000e+03 
281.561  1.67200000e+03 
281.490  1.71800000e+03 
281.418  1.73900000e+03 
281.346  1.71000000e+03 
281.274  1.63900000e+03 
281.203  1.63600000e+03 
281.131  1.65600000e+03 
281.059  1.58900000e+03 
280.987  1.65600000e+03 
280.916  1.73200000e+03 
280.844  1.66100000e+03 
280.772  1.68500000e+03 
280.701  1.65400000e+03 
280.629  1.67800000e+03 
280.557  1.60000000e+03 
280.485  1.61300000e+03 
280.414  1.65400000e+03 
280.342  1.66600000e+03 
280.270  1.68200000e+03 
280.198  1.64300000e+03 
280.127  1.63600000e+03 
280.055  1.70700000e+03 
279.983  1.68800000e+03 
279.912  1.69400000e+03 
279.840  1.58700000e+03 
279.768  1.62600000e+03 
279.696  1.71500000e+03 
279.625  1.60400000e+03 
279.553  1.63500000e+03 
279.481  1.70600000e+03 
279.409  1.58900000e+03 
279.338  1.69400000e+03 
279.266  1.64800000e+03 
279.194  1.66200000e+03 
279.123  1.64900000e+03 
279.051  1.56900000e+03 
[ Region 9 Curve ]
BEcenter= 284.000 
BEwidth= -9.898  
Excitation= 1486.600
Time_p_channel= 512.000 
Size= 139
288.949  1.16300000e+03 
288.877  1.14700000e+03 
288.806  1.11500000e+03 
288.734  1.14100000e+03 
288.662  1.17200000e+03 
288.591  1.17800000e+03 
288.519  1.19800000e+03 
288.447  1.17900000e+03 
288.375  1.20500000e+03 
288.304  1.14000000e+03 
288.232  1.20600000e+03 
288.160  1.18700000e+03 
288.088  1.13500000e+03 
288.017  1.16700000e+03 
287.945  1.14600000e+03 
287.873  1.18100000e+03 
287.802  1.21800000e+03 
287.730  1.21800000e+03 
287.658  1.21300000e+03 
287.586  1.21200000e+03 
287.515  1.19600000e+03 
287.443  1.28300000e+03 
287.371  1.21600000e+03 
287.299  1.32200000e+03 
287.228  1.27800000e+03 
287.156  1.21600000e+03 
287.084  1.33100000e+03 
287.013  1.29900000e+03 
286.941  1.22900000e+03 
286.869  1.32100000e+03 
286.797  1.33400000e+03 
286.726  1.24800000e+03 
286.654  1.27300000e+03 
286.582  1.32700000e+03 
286.510  1.37600000e+03 
286.439  1.43200000e+03 
286.367  1.42800000e+03 
286.295  1.42400000e+03 
286.224  1.39900000e+03 
286.152  1.50300000e+03 
286.080  1.50700000e+03 
286.008  1.49200000e+03 
285.937  1.57000000e+03 
285.865  1.54300000e+03 
285.793  1.54400000e+03 
285.721  1.64600000e+03 
285.650  1.65300000e+03 
285.578  1.67500000e+03 
285.506  1.66000000e+03 
285.435  1.67800000e+03 
285.363  1.78300000e+03 
285.291  1.78400000e+03 
285.219  1.83000000e+03 
285.148  1.82500000e+03 
285.076  1.77500000e+03 
285.004  1.91000000e+03 
284.932  1.88000000e+03 
284.861  1.90000000e+03 
284.789  1.94400000e+03 
284.717  1.92000000e+03 
284.646  1.99900000e+03 
284.574  1.90700000e+03 
284.502  1.96900000e+03 
284.430  1.96100000e+03 
284.359  1.91100000e+03 
284.287  1.96300000e+03 
284.215  1.92500000e+03 
284.143  1.91200000e+03 
284.072  1.96600000e+03 
284.000  1.88700000e+03 
283.928  1.88300000e+03 
283.857  1.87200000e+03 
283.785  1.86500000e+03 
283.713  1.74600000e+03 
283.641  1.72300000e+03 
283.570  1.74700000e+03 
283.498  1.72800000e+03 
283.426  1.65700000e+03 
283.354  1.64900000e+03 
283.283  1.52300000e+03 
283.211  1.49400000e+03 
283.139  1.44800000e+03 
283.068  1.44000000e+03 
282.996  1.38800000e+03 
282.924  1.31400000e+03 
282.852  1.30500000e+03 
282.781  1.32500000e+03 
282.709  1.22100000e+03 
282.637  1.26500000e+03 
282.565  1.23900000e+03 
282.494  1.18300000e+03 
282.422  1.21700000e+03 
282.350  1.17700000e+03 
282.279  1.19800000e+03 
282.207  1.08700000e+03 
282.135  1.16700000e+03 
282.063  1.06000000e+03 
281.992  1.07900000e+03 
281.920  1.08800000e+03 
281.848  1.12600000e+03 
281.776  1.09000000e+03 
281.705  1.09500000e+03 
281.633  1.10900000e+03 
281.561  1.05900000e+03 
281.490  1.10300000e+03 
281.418  1.10000000e+03 
281.346  1.07900000e+03 
281.274  1.15100000e+03 
281.203  1.09700000e+03 
281.131  1.11800000e+03 
281.059  1.17300000e+03 
280.987  1.10200000e+03 
280.916  1.00600000e+03 
280.844  1.11300000e+03 
280.772  1.12400000e+03 
280.701  1.08500000e+03 
280.629  1.06300000e+03 
280.557  1.12200000e+03 
280.485  1.13000000e+03 
280.414  1.12900000e+03 
280.342  1.09400000e+03 
280.270  1.09000000e+03 
280.198  1.05500000e+03 
280.127  1.10200000e+03 
280.055  1.10000000e+03 
279.983  1.11500000e+03 
279.912  1.12600000e+03 
279.840  1.13500000e+03 
279.768  1.11500000e+03 
279.696  1.19900000e+03 
279.625  1.06700000e+03 
279.553  1.14500000e+03 
279.481  1.19100000e+03 
279.409  1.07500000e+03 
279.338  1.09600000e+03 
279.266  1.15600000e+03 
279.194  1.13400000e+03 
279.123  1.08200000e+03 
279.051  1.12400000e+03 
