[ Experiment Parameters ]
Experiment Description= <none> 
Number_of_Regions_in_Experiment= 2 

Original_File_name= c:\alexesca\data\97073102.xps 
Instrument= ESCA-West
Date= 07-30-1997
Time=  19:55:35

[ Region 1 Parameters ]
Region_Description = O for XPD                          
BEcenter(eV) = 532.000000
BEwidth(eV) = 14.000000
BEstep(eV) = 0.035938
Dwell_Time(sec) = 0.250000
N_o_scans = 1  
N_o_Channels = 390  
Excitation_Energy = -0.000000  
Scan_mode = 0  (DITHERED)

[ Region 2 Parameters ]
Region_Description = Mn for XPD                         
BEcenter(eV) = 643.000000
BEwidth(eV) = 12.000000
BEstep(eV) = 0.035938
Dwell_Time(sec) = 0.250000
N_o_scans = 1  
N_o_Channels = 334  
Excitation_Energy = -0.000000  
Scan_mode = 0  (DITHERED)

[ Region 1 Curve ]
BEcenter= 532.000 
BEwidth= -13.975 
Excitation= 1486.600
Time_p_channel= 64.000  
Size= 390
538.987  1.80000000e+01 
538.951  1.30000000e+01 
538.915  1.00000000e+01 
538.880  1.50000000e+01 
538.844  1.40000000e+01 
538.808  1.30000000e+01 
538.772  1.00000000e+01 
538.736  1.30000000e+01 
538.700  2.30000000e+01 
538.664  2.00000000e+01 
538.628  1.80000000e+01 
538.592  1.90000000e+01 
538.556  2.00000000e+01 
538.520  9.00000000e+00 
538.484  8.00000000e+00 
538.448  1.00000000e+01 
538.413  2.20000000e+01 
538.377  9.00000000e+00 
538.341  6.00000000e+00 
538.305  1.70000000e+01 
538.269  1.10000000e+01 
538.233  9.00000000e+00 
538.197  1.60000000e+01 
538.161  1.10000000e+01 
538.125  1.70000000e+01 
538.089  1.60000000e+01 
538.053  1.40000000e+01 
538.017  1.20000000e+01 
537.981  7.00000000e+00 
537.945  9.00000000e+00 
537.910  1.60000000e+01 
537.874  1.50000000e+01 
537.838  1.00000000e+01 
537.802  1.10000000e+01 
537.766  8.00000000e+00 
537.730  1.50000000e+01 
537.694  1.70000000e+01 
537.658  7.00000000e+00 
537.622  1.70000000e+01 
537.586  1.10000000e+01 
537.550  8.00000000e+00 
537.514  1.20000000e+01 
537.478  2.00000000e+01 
537.443  1.00000000e+01 
537.407  2.00000000e+01 
537.371  1.20000000e+01 
537.335  1.20000000e+01 
537.299  2.50000000e+01 
537.263  5.00000000e+00 
537.227  1.30000000e+01 
537.191  1.10000000e+01 
537.155  1.20000000e+01 
537.119  1.50000000e+01 
537.083  1.20000000e+01 
537.047  1.30000000e+01 
537.011  1.60000000e+01 
536.976  2.20000000e+01 
536.940  2.50000000e+01 
536.904  1.80000000e+01 
536.868  1.70000000e+01 
536.832  1.60000000e+01 
536.796  1.00000000e+01 
536.760  1.30000000e+01 
536.724  1.20000000e+01 
536.688  1.20000000e+01 
536.652  1.50000000e+01 
536.616  1.90000000e+01 
536.580  2.10000000e+01 
536.544  7.00000000e+00 
536.509  2.00000000e+01 
536.473  1.90000000e+01 
536.437  1.20000000e+01 
536.401  2.00000000e+01 
536.365  1.40000000e+01 
536.329  1.10000000e+01 
536.293  9.00000000e+00 
536.257  2.10000000e+01 
536.221  1.60000000e+01 
536.185  1.10000000e+01 
536.149  1.20000000e+01 
536.113  2.10000000e+01 
536.077  1.40000000e+01 
536.042  1.70000000e+01 
536.006  1.80000000e+01 
535.970  1.40000000e+01 
535.934  1.60000000e+01 
535.898  1.70000000e+01 
535.862  1.00000000e+01 
535.826  1.10000000e+01 
535.790  1.40000000e+01 
535.754  1.60000000e+01 
535.718  1.40000000e+01 
535.682  1.60000000e+01 
535.646  1.30000000e+01 
535.610  1.60000000e+01 
535.574  1.80000000e+01 
535.539  2.30000000e+01 
535.503  1.00000000e+01 
535.467  1.50000000e+01 
535.431  2.20000000e+01 
535.395  2.00000000e+01 
535.359  2.10000000e+01 
535.323  1.80000000e+01 
535.287  1.80000000e+01 
535.251  2.30000000e+01 
535.215  2.30000000e+01 
535.179  1.60000000e+01 
535.143  2.40000000e+01 
535.107  2.50000000e+01 
535.072  2.10000000e+01 
535.036  1.50000000e+01 
535.000  2.00000000e+01 
534.964  2.70000000e+01 
534.928  2.60000000e+01 
534.892  3.60000000e+01 
534.856  2.80000000e+01 
534.820  2.80000000e+01 
534.784  1.70000000e+01 
534.748  2.10000000e+01 
534.712  2.40000000e+01 
534.676  1.90000000e+01 
534.640  3.00000000e+01 
534.605  3.40000000e+01 
534.569  3.70000000e+01 
534.533  3.00000000e+01 
534.497  2.30000000e+01 
534.461  2.70000000e+01 
534.425  2.30000000e+01 
534.389  3.30000000e+01 
534.353  2.80000000e+01 
534.317  3.50000000e+01 
534.281  3.70000000e+01 
534.245  3.30000000e+01 
534.209  3.00000000e+01 
534.173  3.00000000e+01 
534.138  3.20000000e+01 
534.102  3.30000000e+01 
534.066  3.90000000e+01 
534.030  2.90000000e+01 
533.994  3.40000000e+01 
533.958  4.10000000e+01 
533.922  3.70000000e+01 
533.886  4.30000000e+01 
533.850  4.00000000e+01 
533.814  4.10000000e+01 
533.778  3.20000000e+01 
533.742  5.20000000e+01 
533.706  4.60000000e+01 
533.670  5.20000000e+01 
533.635  3.70000000e+01 
533.599  4.90000000e+01 
533.563  4.20000000e+01 
533.527  5.00000000e+01 
533.491  5.20000000e+01 
533.455  4.70000000e+01 
533.419  4.70000000e+01 
533.383  4.20000000e+01 
533.347  6.50000000e+01 
533.311  5.80000000e+01 
533.275  5.90000000e+01 
533.239  4.60000000e+01 
533.203  4.90000000e+01 
533.168  4.60000000e+01 
533.132  5.90000000e+01 
533.096  4.10000000e+01 
533.060  5.00000000e+01 
533.024  4.90000000e+01 
532.988  4.90000000e+01 
532.952  5.00000000e+01 
532.916  4.50000000e+01 
532.880  4.40000000e+01 
532.844  6.00000000e+01 
532.808  4.20000000e+01 
532.772  4.90000000e+01 
532.736  4.60000000e+01 
532.701  4.40000000e+01 
532.665  5.20000000e+01 
532.629  4.50000000e+01 
532.593  3.60000000e+01 
532.557  3.00000000e+01 
532.521  3.50000000e+01 
532.485  4.10000000e+01 
532.449  3.30000000e+01 
532.413  3.50000000e+01 
532.377  3.20000000e+01 
532.341  3.20000000e+01 
532.305  3.10000000e+01 
532.269  3.20000000e+01 
532.234  2.40000000e+01 
532.198  2.90000000e+01 
532.162  2.90000000e+01 
532.126  2.70000000e+01 
532.090  1.60000000e+01 
532.054  2.00000000e+01 
532.018  2.90000000e+01 
531.982  2.20000000e+01 
531.946  2.20000000e+01 
531.910  2.30000000e+01 
531.874  2.80000000e+01 
531.838  1.90000000e+01 
531.802  2.20000000e+01 
531.766  1.40000000e+01 
531.731  1.60000000e+01 
531.695  3.00000000e+01 
531.659  2.00000000e+01 
531.623  2.20000000e+01 
531.587  1.20000000e+01 
531.551  1.40000000e+01 
531.515  1.70000000e+01 
531.479  1.90000000e+01 
531.443  2.10000000e+01 
531.407  1.60000000e+01 
531.371  1.30000000e+01 
531.335  2.10000000e+01 
531.299  1.60000000e+01 
531.264  1.80000000e+01 
531.228  2.00000000e+01 
531.192  1.40000000e+01 
531.156  1.20000000e+01 
531.120  9.00000000e+00 
531.084  1.10000000e+01 
531.048  1.90000000e+01 
531.012  1.50000000e+01 
530.976  1.50000000e+01 
530.940  1.40000000e+01 
530.904  1.50000000e+01 
530.868  1.30000000e+01 
530.832  2.10000000e+01 
530.797  1.60000000e+01 
530.761  1.60000000e+01 
530.725  1.30000000e+01 
530.689  1.90000000e+01 
530.653  1.30000000e+01 
530.617  2.00000000e+01 
530.581  2.00000000e+01 
530.545  1.30000000e+01 
530.509  1.10000000e+01 
530.473  1.90000000e+01 
530.437  1.00000000e+01 
530.401  1.10000000e+01 
530.365  9.00000000e+00 
530.330  1.50000000e+01 
530.294  1.20000000e+01 
530.258  1.00000000e+01 
530.222  9.00000000e+00 
530.186  1.70000000e+01 
530.150  2.20000000e+01 
530.114  1.80000000e+01 
530.078  1.30000000e+01 
530.042  1.40000000e+01 
530.006  1.60000000e+01 
529.970  2.10000000e+01 
529.934  1.40000000e+01 
529.898  7.00000000e+00 
529.862  1.60000000e+01 
529.827  1.00000000e+01 
529.791  1.40000000e+01 
529.755  1.20000000e+01 
529.719  1.00000000e+01 
529.683  1.40000000e+01 
529.647  1.90000000e+01 
529.611  1.30000000e+01 
529.575  1.20000000e+01 
529.539  1.10000000e+01 
529.503  1.60000000e+01 
529.467  1.50000000e+01 
529.431  1.30000000e+01 
529.395  4.00000000e+00 
529.360  1.50000000e+01 
529.324  1.20000000e+01 
529.288  1.20000000e+01 
529.252  1.90000000e+01 
529.216  1.00000000e+01 
529.180  9.00000000e+00 
529.144  9.00000000e+00 
529.108  1.30000000e+01 
529.072  1.30000000e+01 
529.036  1.00000000e+01 
529.000  1.00000000e+01 
528.964  1.20000000e+01 
528.928  1.40000000e+01 
528.893  1.20000000e+01 
528.857  1.50000000e+01 
528.821  7.00000000e+00 
528.785  1.50000000e+01 
528.749  1.00000000e+01 
528.713  1.30000000e+01 
528.677  1.20000000e+01 
528.641  5.00000000e+00 
528.605  1.50000000e+01 
528.569  1.90000000e+01 
528.533  1.00000000e+01 
528.497  1.00000000e+01 
528.461  1.10000000e+01 
528.426  1.60000000e+01 
528.390  1.10000000e+01 
528.354  7.00000000e+00 
528.318  6.00000000e+00 
528.282  1.10000000e+01 
528.246  1.20000000e+01 
528.210  1.40000000e+01 
528.174  1.20000000e+01 
528.138  1.40000000e+01 
528.102  7.00000000e+00 
528.066  1.10000000e+01 
528.030  7.00000000e+00 
527.994  5.00000000e+00 
527.958  1.00000000e+01 
527.923  1.20000000e+01 
527.887  2.00000000e+01 
527.851  1.50000000e+01 
527.815  1.20000000e+01 
527.779  9.00000000e+00 
527.743  1.00000000e+01 
527.707  8.00000000e+00 
527.671  6.00000000e+00 
527.635  1.10000000e+01 
527.599  9.00000000e+00 
527.563  9.00000000e+00 
527.527  9.00000000e+00 
527.491  2.40000000e+01 
527.456  1.40000000e+01 
527.420  1.30000000e+01 
527.384  1.40000000e+01 
527.348  1.30000000e+01 
527.312  1.10000000e+01 
527.276  1.00000000e+01 
527.240  7.00000000e+00 
527.204  1.20000000e+01 
527.168  7.00000000e+00 
527.132  1.30000000e+01 
527.096  1.10000000e+01 
527.060  1.40000000e+01 
527.024  2.30000000e+01 
526.989  1.10000000e+01 
526.953  9.00000000e+00 
526.917  1.10000000e+01 
526.881  1.10000000e+01 
526.845  1.10000000e+01 
526.809  2.40000000e+01 
526.773  1.50000000e+01 
526.737  1.30000000e+01 
526.701  1.60000000e+01 
526.665  1.30000000e+01 
526.629  1.10000000e+01 
526.593  1.20000000e+01 
526.557  1.80000000e+01 
526.522  1.30000000e+01 
526.486  1.00000000e+01 
526.450  1.50000000e+01 
526.414  1.40000000e+01 
526.378  1.00000000e+01 
526.342  9.00000000e+00 
526.306  1.30000000e+01 
526.270  6.00000000e+00 
526.234  1.00000000e+01 
526.198  1.10000000e+01 
526.162  1.20000000e+01 
526.126  1.40000000e+01 
526.090  6.00000000e+00 
526.055  1.50000000e+01 
526.019  1.30000000e+01 
525.983  1.50000000e+01 
525.947  1.10000000e+01 
525.911  9.00000000e+00 
525.875  1.30000000e+01 
525.839  8.00000000e+00 
525.803  1.70000000e+01 
525.767  1.60000000e+01 
525.731  1.30000000e+01 
525.695  1.10000000e+01 
525.659  2.40000000e+01 
525.623  1.20000000e+01 
525.587  1.10000000e+01 
525.552  1.30000000e+01 
525.516  1.40000000e+01 
525.480  9.00000000e+00 
525.444  8.00000000e+00 
525.408  1.10000000e+01 
525.372  8.00000000e+00 
525.336  8.00000000e+00 
525.300  9.00000000e+00 
525.264  9.00000000e+00 
525.228  1.70000000e+01 
525.192  9.00000000e+00 
525.156  9.00000000e+00 
525.120  1.10000000e+01 
525.085  1.60000000e+01 
525.049  1.30000000e+01 
525.013  8.00000000e+00 
[ Region 2 Curve ]
BEcenter= 643.000 
BEwidth= -11.959 
Excitation= 1486.600
Time_p_channel= 64.000  
Size= 334
648.979  1.80000000e+01 
648.944  1.50000000e+01 
648.908  2.10000000e+01 
648.872  2.00000000e+01 
648.836  1.80000000e+01 
648.800  1.20000000e+01 
648.764  2.60000000e+01 
648.728  2.50000000e+01 
648.692  2.30000000e+01 
648.656  1.80000000e+01 
648.620  2.00000000e+01 
648.584  2.10000000e+01 
648.549  1.90000000e+01 
648.513  2.10000000e+01 
648.477  2.20000000e+01 
648.441  1.70000000e+01 
648.405  1.40000000e+01 
648.369  2.40000000e+01 
648.333  2.30000000e+01 
648.297  2.20000000e+01 
648.261  2.90000000e+01 
648.225  2.40000000e+01 
648.189  2.30000000e+01 
648.153  1.90000000e+01 
648.118  1.80000000e+01 
648.082  1.20000000e+01 
648.046  2.40000000e+01 
648.010  2.70000000e+01 
647.974  2.30000000e+01 
647.938  1.80000000e+01 
647.902  2.20000000e+01 
647.866  1.40000000e+01 
647.830  2.10000000e+01 
647.794  1.90000000e+01 
647.758  2.40000000e+01 
647.723  2.70000000e+01 
647.687  2.40000000e+01 
647.651  1.80000000e+01 
647.615  1.70000000e+01 
647.579  2.60000000e+01 
647.543  2.10000000e+01 
647.507  2.30000000e+01 
647.471  1.80000000e+01 
647.435  2.20000000e+01 
647.399  2.30000000e+01 
647.363  2.30000000e+01 
647.328  2.30000000e+01 
647.292  2.10000000e+01 
647.256  1.80000000e+01 
647.220  2.10000000e+01 
647.184  2.20000000e+01 
647.148  2.00000000e+01 
647.112  2.60000000e+01 
647.076  2.80000000e+01 
647.040  1.60000000e+01 
647.004  2.90000000e+01 
646.968  3.10000000e+01 
646.932  2.10000000e+01 
646.897  2.00000000e+01 
646.861  2.80000000e+01 
646.825  1.80000000e+01 
646.789  2.20000000e+01 
646.753  2.60000000e+01 
646.717  2.50000000e+01 
646.681  2.60000000e+01 
646.645  2.10000000e+01 
646.609  2.40000000e+01 
646.573  2.90000000e+01 
646.537  1.70000000e+01 
646.502  1.70000000e+01 
646.466  1.80000000e+01 
646.430  1.90000000e+01 
646.394  1.70000000e+01 
646.358  2.20000000e+01 
646.322  2.60000000e+01 
646.286  2.60000000e+01 
646.250  3.60000000e+01 
646.214  3.10000000e+01 
646.178  2.40000000e+01 
646.142  2.10000000e+01 
646.106  3.00000000e+01 
646.071  3.00000000e+01 
646.035  3.60000000e+01 
645.999  2.00000000e+01 
645.963  1.90000000e+01 
645.927  2.40000000e+01 
645.891  2.30000000e+01 
645.855  2.40000000e+01 
645.819  2.30000000e+01 
645.783  2.30000000e+01 
645.747  1.90000000e+01 
645.711  2.20000000e+01 
645.676  2.20000000e+01 
645.640  1.40000000e+01 
645.604  2.60000000e+01 
645.568  1.90000000e+01 
645.532  1.80000000e+01 
645.496  2.30000000e+01 
645.460  2.50000000e+01 
645.424  2.00000000e+01 
645.388  2.20000000e+01 
645.352  2.60000000e+01 
645.316  2.50000000e+01 
645.280  1.10000000e+01 
645.245  2.70000000e+01 
645.209  1.80000000e+01 
645.173  2.00000000e+01 
645.137  2.60000000e+01 
645.101  3.40000000e+01 
645.065  2.20000000e+01 
645.029  2.30000000e+01 
644.993  3.40000000e+01 
644.957  2.50000000e+01 
644.921  1.90000000e+01 
644.885  2.50000000e+01 
644.850  1.90000000e+01 
644.814  1.80000000e+01 
644.778  1.80000000e+01 
644.742  2.30000000e+01 
644.706  2.50000000e+01 
644.670  2.40000000e+01 
644.634  1.20000000e+01 
644.598  1.20000000e+01 
644.562  2.50000000e+01 
644.526  1.90000000e+01 
644.490  2.10000000e+01 
644.454  2.30000000e+01 
644.419  1.30000000e+01 
644.383  2.50000000e+01 
644.347  2.60000000e+01 
644.311  2.40000000e+01 
644.275  2.40000000e+01 
644.239  3.00000000e+01 
644.203  1.40000000e+01 
644.167  2.50000000e+01 
644.131  2.00000000e+01 
644.095  1.80000000e+01 
644.059  1.70000000e+01 
644.024  1.90000000e+01 
643.988  2.10000000e+01 
643.952  2.90000000e+01 
643.916  1.70000000e+01 
643.880  2.80000000e+01 
643.844  1.90000000e+01 
643.808  1.50000000e+01 
643.772  2.30000000e+01 
643.736  1.60000000e+01 
643.700  1.80000000e+01 
643.664  2.00000000e+01 
643.628  2.30000000e+01 
643.593  2.00000000e+01 
643.557  4.00000000e+01 
643.521  2.40000000e+01 
643.485  2.30000000e+01 
643.449  1.20000000e+01 
643.413  1.90000000e+01 
643.377  1.80000000e+01 
643.341  2.40000000e+01 
643.305  2.20000000e+01 
643.269  3.30000000e+01 
643.233  1.70000000e+01 
643.198  2.80000000e+01 
643.162  2.80000000e+01 
643.126  1.90000000e+01 
643.090  2.20000000e+01 
643.054  2.50000000e+01 
643.018  2.10000000e+01 
642.982  1.90000000e+01 
642.946  1.60000000e+01 
642.910  2.50000000e+01 
642.874  2.10000000e+01 
642.838  2.10000000e+01 
642.802  1.80000000e+01 
642.767  2.50000000e+01 
642.731  1.90000000e+01 
642.695  2.20000000e+01 
642.659  2.00000000e+01 
642.623  2.20000000e+01 
642.587  2.10000000e+01 
642.551  2.00000000e+01 
642.515  2.10000000e+01 
642.479  1.90000000e+01 
642.443  2.20000000e+01 
642.407  2.40000000e+01 
642.372  2.00000000e+01 
642.336  2.90000000e+01 
642.300  2.20000000e+01 
642.264  2.00000000e+01 
642.228  3.80000000e+01 
642.192  2.10000000e+01 
642.156  3.40000000e+01 
642.120  2.20000000e+01 
642.084  1.90000000e+01 
642.048  2.70000000e+01 
642.012  3.00000000e+01 
641.976  2.00000000e+01 
641.941  2.10000000e+01 
641.905  2.80000000e+01 
641.869  2.40000000e+01 
641.833  2.60000000e+01 
641.797  1.90000000e+01 
641.761  2.10000000e+01 
641.725  2.50000000e+01 
641.689  2.00000000e+01 
641.653  1.70000000e+01 
641.617  2.60000000e+01 
641.581  1.10000000e+01 
641.546  2.30000000e+01 
641.510  2.60000000e+01 
641.474  1.60000000e+01 
641.438  2.30000000e+01 
641.402  2.50000000e+01 
641.366  2.10000000e+01 
641.330  2.50000000e+01 
641.294  1.80000000e+01 
641.258  2.10000000e+01 
641.222  1.80000000e+01 
641.186  2.10000000e+01 
641.150  2.70000000e+01 
641.115  2.40000000e+01 
641.079  2.10000000e+01 
641.043  2.00000000e+01 
641.007  2.80000000e+01 
640.971  2.10000000e+01 
640.935  2.50000000e+01 
640.899  2.30000000e+01 
640.863  1.80000000e+01 
640.827  2.20000000e+01 
640.791  2.70000000e+01 
640.755  2.70000000e+01 
640.720  1.90000000e+01 
640.684  1.70000000e+01 
640.648  2.90000000e+01 
640.612  1.90000000e+01 
640.576  2.50000000e+01 
640.540  2.20000000e+01 
640.504  2.10000000e+01 
640.468  2.20000000e+01 
640.432  1.70000000e+01 
640.396  1.80000000e+01 
640.360  2.50000000e+01 
640.324  1.20000000e+01 
640.289  2.00000000e+01 
640.253  2.00000000e+01 
640.217  1.60000000e+01 
640.181  1.80000000e+01 
640.145  2.80000000e+01 
640.109  2.00000000e+01 
640.073  2.60000000e+01 
640.037  1.90000000e+01 
640.001  1.70000000e+01 
639.965  2.70000000e+01 
639.929  1.90000000e+01 
639.894  1.70000000e+01 
639.858  2.40000000e+01 
639.822  3.10000000e+01 
639.786  1.70000000e+01 
639.750  2.10000000e+01 
639.714  1.10000000e+01 
639.678  1.60000000e+01 
639.642  1.90000000e+01 
639.606  2.70000000e+01 
639.570  2.10000000e+01 
639.534  2.20000000e+01 
639.498  1.90000000e+01 
639.463  2.30000000e+01 
639.427  2.50000000e+01 
639.391  1.50000000e+01 
639.355  2.70000000e+01 
639.319  1.30000000e+01 
639.283  2.00000000e+01 
639.247  1.60000000e+01 
639.211  1.90000000e+01 
639.175  1.80000000e+01 
639.139  2.20000000e+01 
639.103  2.30000000e+01 
639.068  2.70000000e+01 
639.032  2.50000000e+01 
638.996  1.20000000e+01 
638.960  2.70000000e+01 
638.924  2.30000000e+01 
638.888  2.30000000e+01 
638.852  2.00000000e+01 
638.816  1.90000000e+01 
638.780  2.40000000e+01 
638.744  2.50000000e+01 
638.708  1.20000000e+01 
638.672  2.40000000e+01 
638.637  2.30000000e+01 
638.601  1.80000000e+01 
638.565  1.30000000e+01 
638.529  1.70000000e+01 
638.493  3.00000000e+01 
638.457  3.00000000e+01 
638.421  1.80000000e+01 
638.385  2.70000000e+01 
638.349  2.40000000e+01 
638.313  2.10000000e+01 
638.277  2.30000000e+01 
638.242  2.30000000e+01 
638.206  2.30000000e+01 
638.170  2.00000000e+01 
638.134  2.90000000e+01 
638.098  2.70000000e+01 
638.062  1.40000000e+01 
638.026  2.40000000e+01 
637.990  2.70000000e+01 
637.954  2.10000000e+01 
637.918  1.40000000e+01 
637.882  2.50000000e+01 
637.847  2.40000000e+01 
637.811  3.30000000e+01 
637.775  2.30000000e+01 
637.739  1.60000000e+01 
637.703  2.20000000e+01 
637.667  2.10000000e+01 
637.631  2.30000000e+01 
637.595  2.50000000e+01 
637.559  1.70000000e+01 
637.523  1.80000000e+01 
637.487  2.90000000e+01 
637.451  2.40000000e+01 
637.416  2.70000000e+01 
637.380  2.40000000e+01 
637.344  1.90000000e+01 
637.308  1.50000000e+01 
637.272  2.30000000e+01 
637.236  2.30000000e+01 
637.200  2.00000000e+01 
637.164  2.50000000e+01 
637.128  2.60000000e+01 
637.092  1.80000000e+01 
637.056  2.70000000e+01 
637.021  1.80000000e+01 
