[ Experiment Parameters ]
Experiment Description= C1s mono=7.6 +-.1    take-off = -40,-30...40 
Number_of_Regions_in_Experiment= 9 

Original_File_name= c:\alexesca\data\97071013.xps 
Instrument= ESCA-West
Date= 07-10-1997
Time=  09:22:28

[ Region 1 Parameters ]
Region_Description = C 1s    dithered                           
BEcenter(eV) = 284.000000
BEwidth(eV) = 10.000000
BEstep(eV) = 0.071875
Dwell_Time(sec) = 1.000000
N_o_scans = 1  
N_o_Channels = 139  
Excitation_Energy = 0.000000  
Scan_mode = 0  (DITHERED)

[ Region 2 Parameters ]
Region_Description = C 1s    dithered                           
BEcenter(eV) = 284.000000
BEwidth(eV) = 10.000000
BEstep(eV) = 0.071875
Dwell_Time(sec) = 1.000000
N_o_scans = 1  
N_o_Channels = 139  
Excitation_Energy = 0.000000  
Scan_mode = 0  (DITHERED)

[ Region 3 Parameters ]
Region_Description = C 1s    dithered                           
BEcenter(eV) = 284.000000
BEwidth(eV) = 10.000000
BEstep(eV) = 0.071875
Dwell_Time(sec) = 1.000000
N_o_scans = 1  
N_o_Channels = 139  
Excitation_Energy = 0.000000  
Scan_mode = 0  (DITHERED)

[ Region 4 Parameters ]
Region_Description = C 1s    dithered                           
BEcenter(eV) = 284.000000
BEwidth(eV) = 10.000000
BEstep(eV) = 0.071875
Dwell_Time(sec) = 1.000000
N_o_scans = 1  
N_o_Channels = 139  
Excitation_Energy = 0.000000  
Scan_mode = 0  (DITHERED)

[ Region 5 Parameters ]
Region_Description = C 1s    dithered                           
BEcenter(eV) = 284.000000
BEwidth(eV) = 10.000000
BEstep(eV) = 0.071875
Dwell_Time(sec) = 1.000000
N_o_scans = 1  
N_o_Channels = 139  
Excitation_Energy = 0.000000  
Scan_mode = 0  (DITHERED)

[ Region 6 Parameters ]
Region_Description = C 1s    dithered                           
BEcenter(eV) = 284.000000
BEwidth(eV) = 10.000000
BEstep(eV) = 0.071875
Dwell_Time(sec) = 1.000000
N_o_scans = 1  
N_o_Channels = 139  
Excitation_Energy = 0.000000  
Scan_mode = 0  (DITHERED)

[ Region 7 Parameters ]
Region_Description = C 1s    dithered                           
BEcenter(eV) = 284.000000
BEwidth(eV) = 10.000000
BEstep(eV) = 0.071875
Dwell_Time(sec) = 1.000000
N_o_scans = 1  
N_o_Channels = 139  
Excitation_Energy = 0.000000  
Scan_mode = 0  (DITHERED)

[ Region 8 Parameters ]
Region_Description = C 1s    dithered                           
BEcenter(eV) = 284.000000
BEwidth(eV) = 10.000000
BEstep(eV) = 0.071875
Dwell_Time(sec) = 1.000000
N_o_scans = 1  
N_o_Channels = 139  
Excitation_Energy = 0.000000  
Scan_mode = 0  (DITHERED)

[ Region 9 Parameters ]
Region_Description = C 1s    dithered                           
BEcenter(eV) = 284.000000
BEwidth(eV) = 10.000000
BEstep(eV) = 0.071875
Dwell_Time(sec) = 1.000000
N_o_scans = 1  
N_o_Channels = 139  
Excitation_Energy = 0.000000  
Scan_mode = 0  (DITHERED)

[ Region 1 Curve ]
BEcenter= 284.000 
BEwidth= -9.898  
Excitation= 1486.600
Time_p_channel= 512.000 
Size= 139
288.949  3.57000000e+02 
288.877  3.13000000e+02 
288.806  3.59000000e+02 
288.734  3.36000000e+02 
288.662  3.62000000e+02 
288.591  3.45000000e+02 
288.519  3.54000000e+02 
288.447  3.30000000e+02 
288.375  3.45000000e+02 
288.304  3.62000000e+02 
288.232  3.68000000e+02 
288.160  3.80000000e+02 
288.088  3.49000000e+02 
288.017  3.70000000e+02 
287.945  3.65000000e+02 
287.873  3.59000000e+02 
287.802  3.93000000e+02 
287.730  3.76000000e+02 
287.658  3.84000000e+02 
287.586  3.70000000e+02 
287.515  4.05000000e+02 
287.443  3.89000000e+02 
287.371  4.10000000e+02 
287.299  3.91000000e+02 
287.228  4.12000000e+02 
287.156  4.52000000e+02 
287.084  4.33000000e+02 
287.013  4.37000000e+02 
286.941  4.83000000e+02 
286.869  4.50000000e+02 
286.797  4.97000000e+02 
286.726  4.87000000e+02 
286.654  4.76000000e+02 
286.582  4.88000000e+02 
286.510  4.64000000e+02 
286.439  4.90000000e+02 
286.367  5.51000000e+02 
286.295  5.26000000e+02 
286.224  5.73000000e+02 
286.152  5.62000000e+02 
286.080  5.74000000e+02 
286.008  6.02000000e+02 
285.937  6.31000000e+02 
285.865  6.41000000e+02 
285.793  6.61000000e+02 
285.721  6.78000000e+02 
285.650  7.15000000e+02 
285.578  7.02000000e+02 
285.506  7.42000000e+02 
285.435  7.78000000e+02 
285.363  7.73000000e+02 
285.291  7.91000000e+02 
285.219  7.81000000e+02 
285.148  7.36000000e+02 
285.076  7.36000000e+02 
285.004  8.02000000e+02 
284.932  7.45000000e+02 
284.861  6.93000000e+02 
284.789  6.86000000e+02 
284.717  7.03000000e+02 
284.646  7.08000000e+02 
284.574  6.72000000e+02 
284.502  6.47000000e+02 
284.430  6.24000000e+02 
284.359  5.64000000e+02 
284.287  5.68000000e+02 
284.215  4.96000000e+02 
284.143  4.97000000e+02 
284.072  4.37000000e+02 
284.000  4.27000000e+02 
283.928  4.45000000e+02 
283.857  3.87000000e+02 
283.785  4.25000000e+02 
283.713  3.59000000e+02 
283.641  4.01000000e+02 
283.570  3.42000000e+02 
283.498  3.35000000e+02 
283.426  3.27000000e+02 
283.354  3.56000000e+02 
283.283  3.24000000e+02 
283.211  3.51000000e+02 
283.139  3.04000000e+02 
283.068  3.41000000e+02 
282.996  3.27000000e+02 
282.924  3.24000000e+02 
282.852  3.18000000e+02 
282.781  3.62000000e+02 
282.709  2.98000000e+02 
282.637  3.06000000e+02 
282.565  3.15000000e+02 
282.494  3.20000000e+02 
282.422  2.94000000e+02 
282.350  3.01000000e+02 
282.279  3.47000000e+02 
282.207  3.37000000e+02 
282.135  3.05000000e+02 
282.063  3.07000000e+02 
281.992  3.12000000e+02 
281.920  3.28000000e+02 
281.848  3.07000000e+02 
281.776  3.16000000e+02 
281.705  3.01000000e+02 
281.633  3.24000000e+02 
281.561  3.14000000e+02 
281.490  2.91000000e+02 
281.418  3.28000000e+02 
281.346  3.38000000e+02 
281.274  3.09000000e+02 
281.203  2.78000000e+02 
281.131  3.36000000e+02 
281.059  3.17000000e+02 
280.987  2.97000000e+02 
280.916  2.93000000e+02 
280.844  2.96000000e+02 
280.772  3.05000000e+02 
280.701  2.80000000e+02 
280.629  3.51000000e+02 
280.557  2.92000000e+02 
280.485  3.18000000e+02 
280.414  3.37000000e+02 
280.342  3.00000000e+02 
280.270  2.99000000e+02 
280.198  3.08000000e+02 
280.127  3.11000000e+02 
280.055  3.26000000e+02 
279.983  3.11000000e+02 
279.912  3.38000000e+02 
279.840  3.22000000e+02 
279.768  3.52000000e+02 
279.696  3.11000000e+02 
279.625  2.97000000e+02 
279.553  2.97000000e+02 
279.481  3.12000000e+02 
279.409  3.32000000e+02 
279.338  3.32000000e+02 
279.266  3.39000000e+02 
279.194  2.93000000e+02 
279.123  3.28000000e+02 
279.051  3.00000000e+02 
[ Region 2 Curve ]
BEcenter= 284.000 
BEwidth= -9.898  
Excitation= 1486.600
Time_p_channel= 512.000 
Size= 139
288.949  6.42000000e+02 
288.877  6.47000000e+02 
288.806  6.63000000e+02 
288.734  6.12000000e+02 
288.662  6.73000000e+02 
288.591  6.14000000e+02 
288.519  6.78000000e+02 
288.447  6.17000000e+02 
288.375  6.09000000e+02 
288.304  6.30000000e+02 
288.232  7.07000000e+02 
288.160  6.28000000e+02 
288.088  6.93000000e+02 
288.017  6.71000000e+02 
287.945  6.77000000e+02 
287.873  6.66000000e+02 
287.802  6.65000000e+02 
287.730  6.67000000e+02 
287.658  7.12000000e+02 
287.586  6.54000000e+02 
287.515  6.68000000e+02 
287.443  6.82000000e+02 
287.371  7.67000000e+02 
287.299  7.48000000e+02 
287.228  7.88000000e+02 
287.156  7.51000000e+02 
287.084  8.23000000e+02 
287.013  8.67000000e+02 
286.941  8.31000000e+02 
286.869  8.32000000e+02 
286.797  8.77000000e+02 
286.726  8.68000000e+02 
286.654  8.68000000e+02 
286.582  8.92000000e+02 
286.510  9.40000000e+02 
286.439  9.29000000e+02 
286.367  9.63000000e+02 
286.295  9.74000000e+02 
286.224  9.88000000e+02 
286.152  1.03600000e+03 
286.080  1.03700000e+03 
286.008  1.10200000e+03 
285.937  1.08600000e+03 
285.865  1.17100000e+03 
285.793  1.17200000e+03 
285.721  1.20100000e+03 
285.650  1.18900000e+03 
285.578  1.21400000e+03 
285.506  1.31500000e+03 
285.435  1.33800000e+03 
285.363  1.31000000e+03 
285.291  1.33800000e+03 
285.219  1.37900000e+03 
285.148  1.37800000e+03 
285.076  1.39000000e+03 
285.004  1.41800000e+03 
284.932  1.34300000e+03 
284.861  1.33300000e+03 
284.789  1.34900000e+03 
284.717  1.28100000e+03 
284.646  1.21200000e+03 
284.574  1.17500000e+03 
284.502  1.12700000e+03 
284.430  1.07500000e+03 
284.359  1.06700000e+03 
284.287  1.01400000e+03 
284.215  9.36000000e+02 
284.143  8.65000000e+02 
284.072  8.37000000e+02 
284.000  8.25000000e+02 
283.928  7.48000000e+02 
283.857  7.21000000e+02 
283.785  7.64000000e+02 
283.713  7.03000000e+02 
283.641  6.48000000e+02 
283.570  6.66000000e+02 
283.498  6.26000000e+02 
283.426  6.19000000e+02 
283.354  6.03000000e+02 
283.283  6.61000000e+02 
283.211  5.86000000e+02 
283.139  6.18000000e+02 
283.068  5.98000000e+02 
282.996  6.23000000e+02 
282.924  5.99000000e+02 
282.852  6.06000000e+02 
282.781  5.35000000e+02 
282.709  5.77000000e+02 
282.637  6.03000000e+02 
282.565  5.96000000e+02 
282.494  5.61000000e+02 
282.422  6.02000000e+02 
282.350  5.71000000e+02 
282.279  6.11000000e+02 
282.207  5.89000000e+02 
282.135  6.06000000e+02 
282.063  5.91000000e+02 
281.992  5.65000000e+02 
281.920  6.09000000e+02 
281.848  5.92000000e+02 
281.776  5.90000000e+02 
281.705  5.77000000e+02 
281.633  5.91000000e+02 
281.561  5.72000000e+02 
281.490  5.57000000e+02 
281.418  5.94000000e+02 
281.346  5.91000000e+02 
281.274  5.47000000e+02 
281.203  6.19000000e+02 
281.131  5.54000000e+02 
281.059  5.93000000e+02 
280.987  5.50000000e+02 
280.916  5.94000000e+02 
280.844  5.95000000e+02 
280.772  5.96000000e+02 
280.701  6.11000000e+02 
280.629  6.10000000e+02 
280.557  6.15000000e+02 
280.485  5.58000000e+02 
280.414  5.65000000e+02 
280.342  5.66000000e+02 
280.270  6.10000000e+02 
280.198  5.85000000e+02 
280.127  5.55000000e+02 
280.055  5.79000000e+02 
279.983  6.00000000e+02 
279.912  5.62000000e+02 
279.840  5.78000000e+02 
279.768  5.84000000e+02 
279.696  5.79000000e+02 
279.625  5.67000000e+02 
279.553  5.69000000e+02 
279.481  5.33000000e+02 
279.409  5.95000000e+02 
279.338  5.93000000e+02 
279.266  5.61000000e+02 
279.194  5.66000000e+02 
279.123  6.13000000e+02 
279.051  5.63000000e+02 
[ Region 3 Curve ]
BEcenter= 284.000 
BEwidth= -9.898  
Excitation= 1486.600
Time_p_channel= 512.000 
Size= 139
288.949  9.69000000e+02 
288.877  1.00800000e+03 
288.806  1.03100000e+03 
288.734  1.00000000e+03 
288.662  9.77000000e+02 
288.591  1.07400000e+03 
288.519  1.02200000e+03 
288.447  1.03400000e+03 
288.375  1.03700000e+03 
288.304  1.02000000e+03 
288.232  9.94000000e+02 
288.160  9.53000000e+02 
288.088  1.00300000e+03 
288.017  1.00500000e+03 
287.945  9.85000000e+02 
287.873  1.07900000e+03 
287.802  1.04200000e+03 
287.730  1.00100000e+03 
287.658  1.03100000e+03 
287.586  1.13300000e+03 
287.515  1.07400000e+03 
287.443  1.10500000e+03 
287.371  1.09100000e+03 
287.299  1.09000000e+03 
287.228  1.11800000e+03 
287.156  1.13900000e+03 
287.084  1.19100000e+03 
287.013  1.18000000e+03 
286.941  1.20300000e+03 
286.869  1.27200000e+03 
286.797  1.20100000e+03 
286.726  1.31800000e+03 
286.654  1.33600000e+03 
286.582  1.32400000e+03 
286.510  1.42800000e+03 
286.439  1.46400000e+03 
286.367  1.44900000e+03 
286.295  1.51200000e+03 
286.224  1.54500000e+03 
286.152  1.57100000e+03 
286.080  1.57800000e+03 
286.008  1.62100000e+03 
285.937  1.70200000e+03 
285.865  1.63100000e+03 
285.793  1.71600000e+03 
285.721  1.78100000e+03 
285.650  1.76900000e+03 
285.578  1.87300000e+03 
285.506  1.88100000e+03 
285.435  1.97800000e+03 
285.363  1.95400000e+03 
285.291  2.08500000e+03 
285.219  2.02500000e+03 
285.148  1.99900000e+03 
285.076  1.96700000e+03 
285.004  2.00900000e+03 
284.932  2.07200000e+03 
284.861  2.05200000e+03 
284.789  1.94900000e+03 
284.717  1.92500000e+03 
284.646  1.86900000e+03 
284.574  1.79700000e+03 
284.502  1.71500000e+03 
284.430  1.70800000e+03 
284.359  1.62100000e+03 
284.287  1.47700000e+03 
284.215  1.47100000e+03 
284.143  1.36700000e+03 
284.072  1.41300000e+03 
284.000  1.27900000e+03 
283.928  1.22800000e+03 
283.857  1.16200000e+03 
283.785  1.13600000e+03 
283.713  1.02400000e+03 
283.641  1.03300000e+03 
283.570  9.99000000e+02 
283.498  9.68000000e+02 
283.426  9.98000000e+02 
283.354  9.66000000e+02 
283.283  9.80000000e+02 
283.211  9.55000000e+02 
283.139  9.52000000e+02 
283.068  8.95000000e+02 
282.996  9.73000000e+02 
282.924  9.72000000e+02 
282.852  9.69000000e+02 
282.781  9.53000000e+02 
282.709  9.48000000e+02 
282.637  9.54000000e+02 
282.565  9.22000000e+02 
282.494  9.33000000e+02 
282.422  9.30000000e+02 
282.350  9.50000000e+02 
282.279  8.44000000e+02 
282.207  9.18000000e+02 
282.135  9.43000000e+02 
282.063  8.99000000e+02 
281.992  8.88000000e+02 
281.920  8.99000000e+02 
281.848  8.99000000e+02 
281.776  9.23000000e+02 
281.705  8.81000000e+02 
281.633  8.93000000e+02 
281.561  9.21000000e+02 
281.490  9.62000000e+02 
281.418  9.23000000e+02 
281.346  9.34000000e+02 
281.274  8.94000000e+02 
281.203  9.08000000e+02 
281.131  1.00600000e+03 
281.059  9.71000000e+02 
280.987  9.21000000e+02 
280.916  8.85000000e+02 
280.844  9.01000000e+02 
280.772  8.71000000e+02 
280.701  8.72000000e+02 
280.629  8.87000000e+02 
280.557  9.41000000e+02 
280.485  8.98000000e+02 
280.414  9.03000000e+02 
280.342  8.90000000e+02 
280.270  8.90000000e+02 
280.198  9.14000000e+02 
280.127  8.93000000e+02 
280.055  9.23000000e+02 
279.983  8.80000000e+02 
279.912  9.12000000e+02 
279.840  9.52000000e+02 
279.768  9.38000000e+02 
279.696  8.96000000e+02 
279.625  9.01000000e+02 
279.553  8.99000000e+02 
279.481  8.85000000e+02 
279.409  8.67000000e+02 
279.338  9.13000000e+02 
279.266  8.99000000e+02 
279.194  9.26000000e+02 
279.123  8.98000000e+02 
279.051  9.12000000e+02 
[ Region 4 Curve ]
BEcenter= 284.000 
BEwidth= -9.898  
Excitation= 1486.600
Time_p_channel= 512.000 
Size= 139
288.949  1.36900000e+03 
288.877  1.34400000e+03 
288.806  1.34200000e+03 
288.734  1.42800000e+03 
288.662  1.37400000e+03 
288.591  1.34200000e+03 
288.519  1.35700000e+03 
288.447  1.33800000e+03 
288.375  1.35800000e+03 
288.304  1.37300000e+03 
288.232  1.31700000e+03 
288.160  1.36000000e+03 
288.088  1.36300000e+03 
288.017  1.39500000e+03 
287.945  1.42100000e+03 
287.873  1.39100000e+03 
287.802  1.39700000e+03 
287.730  1.38600000e+03 
287.658  1.39100000e+03 
287.586  1.42600000e+03 
287.515  1.44700000e+03 
287.443  1.43400000e+03 
287.371  1.43900000e+03 
287.299  1.54200000e+03 
287.228  1.58300000e+03 
287.156  1.51700000e+03 
287.084  1.54800000e+03 
287.013  1.58800000e+03 
286.941  1.63500000e+03 
286.869  1.66400000e+03 
286.797  1.65900000e+03 
286.726  1.76900000e+03 
286.654  1.79300000e+03 
286.582  1.75200000e+03 
286.510  1.80300000e+03 
286.439  1.82200000e+03 
286.367  1.79900000e+03 
286.295  1.88500000e+03 
286.224  1.91800000e+03 
286.152  1.94600000e+03 
286.080  1.99100000e+03 
286.008  2.11900000e+03 
285.937  2.09800000e+03 
285.865  2.23400000e+03 
285.793  2.11000000e+03 
285.721  2.26600000e+03 
285.650  2.31300000e+03 
285.578  2.27900000e+03 
285.506  2.48500000e+03 
285.435  2.51300000e+03 
285.363  2.46600000e+03 
285.291  2.59600000e+03 
285.219  2.59300000e+03 
285.148  2.71500000e+03 
285.076  2.65000000e+03 
285.004  2.63500000e+03 
284.932  2.73900000e+03 
284.861  2.64500000e+03 
284.789  2.64300000e+03 
284.717  2.48000000e+03 
284.646  2.48400000e+03 
284.574  2.47100000e+03 
284.502  2.47700000e+03 
284.430  2.35000000e+03 
284.359  2.23700000e+03 
284.287  2.19900000e+03 
284.215  2.10400000e+03 
284.143  2.02400000e+03 
284.072  1.93600000e+03 
284.000  1.83400000e+03 
283.928  1.82500000e+03 
283.857  1.72300000e+03 
283.785  1.55900000e+03 
283.713  1.54300000e+03 
283.641  1.50900000e+03 
283.570  1.47500000e+03 
283.498  1.44200000e+03 
283.426  1.35600000e+03 
283.354  1.37200000e+03 
283.283  1.31100000e+03 
283.211  1.29700000e+03 
283.139  1.33500000e+03 
283.068  1.37600000e+03 
282.996  1.29200000e+03 
282.924  1.22000000e+03 
282.852  1.27900000e+03 
282.781  1.21200000e+03 
282.709  1.26700000e+03 
282.637  1.28400000e+03 
282.565  1.21500000e+03 
282.494  1.25600000e+03 
282.422  1.33000000e+03 
282.350  1.21000000e+03 
282.279  1.19600000e+03 
282.207  1.26900000e+03 
282.135  1.23000000e+03 
282.063  1.24700000e+03 
281.992  1.32800000e+03 
281.920  1.20800000e+03 
281.848  1.27500000e+03 
281.776  1.36300000e+03 
281.705  1.22600000e+03 
281.633  1.25900000e+03 
281.561  1.27700000e+03 
281.490  1.28100000e+03 
281.418  1.22800000e+03 
281.346  1.33400000e+03 
281.274  1.23500000e+03 
281.203  1.19500000e+03 
281.131  1.29200000e+03 
281.059  1.25500000e+03 
280.987  1.23500000e+03 
280.916  1.23100000e+03 
280.844  1.31000000e+03 
280.772  1.24300000e+03 
280.701  1.26700000e+03 
280.629  1.30600000e+03 
280.557  1.28900000e+03 
280.485  1.22300000e+03 
280.414  1.24900000e+03 
280.342  1.21200000e+03 
280.270  1.28500000e+03 
280.198  1.24800000e+03 
280.127  1.23700000e+03 
280.055  1.28400000e+03 
279.983  1.19200000e+03 
279.912  1.24800000e+03 
279.840  1.24700000e+03 
279.768  1.23300000e+03 
279.696  1.23200000e+03 
279.625  1.22500000e+03 
279.553  1.29200000e+03 
279.481  1.27700000e+03 
279.409  1.23500000e+03 
279.338  1.27000000e+03 
279.266  1.25300000e+03 
279.194  1.18300000e+03 
279.123  1.24000000e+03 
279.051  1.30700000e+03 
[ Region 5 Curve ]
BEcenter= 284.000 
BEwidth= -9.898  
Excitation= 1486.600
Time_p_channel= 512.000 
Size= 139
288.949  1.78800000e+03 
288.877  1.70600000e+03 
288.806  1.76700000e+03 
288.734  1.74200000e+03 
288.662  1.73400000e+03 
288.591  1.75000000e+03 
288.519  1.70100000e+03 
288.447  1.82000000e+03 
288.375  1.69200000e+03 
288.304  1.77400000e+03 
288.232  1.72400000e+03 
288.160  1.76600000e+03 
288.088  1.71500000e+03 
288.017  1.70300000e+03 
287.945  1.77600000e+03 
287.873  1.79300000e+03 
287.802  1.79300000e+03 
287.730  1.83500000e+03 
287.658  1.78100000e+03 
287.586  1.80800000e+03 
287.515  1.80900000e+03 
287.443  1.83700000e+03 
287.371  1.80400000e+03 
287.299  1.83200000e+03 
287.228  1.91900000e+03 
287.156  1.88900000e+03 
287.084  1.96100000e+03 
287.013  1.96100000e+03 
286.941  1.95500000e+03 
286.869  2.01500000e+03 
286.797  2.07200000e+03 
286.726  2.06700000e+03 
286.654  2.17000000e+03 
286.582  2.19900000e+03 
286.510  2.18800000e+03 
286.439  2.22800000e+03 
286.367  2.29100000e+03 
286.295  2.33500000e+03 
286.224  2.31900000e+03 
286.152  2.44300000e+03 
286.080  2.50400000e+03 
286.008  2.56300000e+03 
285.937  2.52200000e+03 
285.865  2.66200000e+03 
285.793  2.63400000e+03 
285.721  2.66900000e+03 
285.650  2.80700000e+03 
285.578  2.93300000e+03 
285.506  2.84500000e+03 
285.435  2.98600000e+03 
285.363  3.05600000e+03 
285.291  3.08300000e+03 
285.219  3.13900000e+03 
285.148  3.15500000e+03 
285.076  3.13700000e+03 
285.004  3.17600000e+03 
284.932  3.14000000e+03 
284.861  3.12300000e+03 
284.789  3.17900000e+03 
284.717  3.25200000e+03 
284.646  3.17800000e+03 
284.574  3.09100000e+03 
284.502  3.14400000e+03 
284.430  3.07100000e+03 
284.359  2.87200000e+03 
284.287  2.92600000e+03 
284.215  2.73800000e+03 
284.143  2.73800000e+03 
284.072  2.55600000e+03 
284.000  2.57500000e+03 
283.928  2.36900000e+03 
283.857  2.21500000e+03 
283.785  2.21600000e+03 
283.713  2.06700000e+03 
283.641  2.00900000e+03 
283.570  2.01000000e+03 
283.498  1.89800000e+03 
283.426  1.93200000e+03 
283.354  1.84900000e+03 
283.283  1.66000000e+03 
283.211  1.71700000e+03 
283.139  1.78300000e+03 
283.068  1.72700000e+03 
282.996  1.58400000e+03 
282.924  1.67500000e+03 
282.852  1.68000000e+03 
282.781  1.60500000e+03 
282.709  1.64100000e+03 
282.637  1.58100000e+03 
282.565  1.62800000e+03 
282.494  1.59400000e+03 
282.422  1.58900000e+03 
282.350  1.64800000e+03 
282.279  1.57700000e+03 
282.207  1.62000000e+03 
282.135  1.61700000e+03 
282.063  1.57200000e+03 
281.992  1.59000000e+03 
281.920  1.55000000e+03 
281.848  1.55400000e+03 
281.776  1.59300000e+03 
281.705  1.64800000e+03 
281.633  1.53100000e+03 
281.561  1.59400000e+03 
281.490  1.56500000e+03 
281.418  1.58600000e+03 
281.346  1.57600000e+03 
281.274  1.55600000e+03 
281.203  1.52400000e+03 
281.131  1.63100000e+03 
281.059  1.53200000e+03 
280.987  1.56600000e+03 
280.916  1.56500000e+03 
280.844  1.64500000e+03 
280.772  1.58900000e+03 
280.701  1.52800000e+03 
280.629  1.64500000e+03 
280.557  1.58900000e+03 
280.485  1.55500000e+03 
280.414  1.67500000e+03 
280.342  1.55900000e+03 
280.270  1.57600000e+03 
280.198  1.55500000e+03 
280.127  1.59500000e+03 
280.055  1.62400000e+03 
279.983  1.59000000e+03 
279.912  1.62900000e+03 
279.840  1.52800000e+03 
279.768  1.53800000e+03 
279.696  1.59300000e+03 
279.625  1.61600000e+03 
279.553  1.63300000e+03 
279.481  1.65600000e+03 
279.409  1.63200000e+03 
279.338  1.49200000e+03 
279.266  1.61700000e+03 
279.194  1.56400000e+03 
279.123  1.58500000e+03 
279.051  1.52600000e+03 
[ Region 6 Curve ]
BEcenter= 284.000 
BEwidth= -9.898  
Excitation= 1486.600
Time_p_channel= 512.000 
Size= 139
288.949  2.06400000e+03 
288.877  2.05800000e+03 
288.806  2.11800000e+03 
288.734  2.10300000e+03 
288.662  2.11400000e+03 
288.591  2.13400000e+03 
288.519  2.13700000e+03 
288.447  1.96100000e+03 
288.375  2.06200000e+03 
288.304  2.08800000e+03 
288.232  2.12200000e+03 
288.160  2.01400000e+03 
288.088  2.10400000e+03 
288.017  2.11900000e+03 
287.945  2.12800000e+03 
287.873  2.10000000e+03 
287.802  2.14700000e+03 
287.730  2.13900000e+03 
287.658  2.19400000e+03 
287.586  2.14700000e+03 
287.515  2.16100000e+03 
287.443  2.16800000e+03 
287.371  2.18800000e+03 
287.299  2.20900000e+03 
287.228  2.31600000e+03 
287.156  2.29800000e+03 
287.084  2.36300000e+03 
287.013  2.24300000e+03 
286.941  2.32400000e+03 
286.869  2.31400000e+03 
286.797  2.37600000e+03 
286.726  2.53700000e+03 
286.654  2.48900000e+03 
286.582  2.61500000e+03 
286.510  2.60200000e+03 
286.439  2.58600000e+03 
286.367  2.63500000e+03 
286.295  2.68200000e+03 
286.224  2.81000000e+03 
286.152  2.77400000e+03 
286.080  2.85400000e+03 
286.008  2.89600000e+03 
285.937  3.00400000e+03 
285.865  3.07000000e+03 
285.793  3.15600000e+03 
285.721  3.24600000e+03 
285.650  3.33500000e+03 
285.578  3.26100000e+03 
285.506  3.41000000e+03 
285.435  3.43700000e+03 
285.363  3.45900000e+03 
285.291  3.65600000e+03 
285.219  3.56600000e+03 
285.148  3.76800000e+03 
285.076  3.72500000e+03 
285.004  3.78500000e+03 
284.932  3.76600000e+03 
284.861  3.85500000e+03 
284.789  3.90600000e+03 
284.717  3.83300000e+03 
284.646  3.93100000e+03 
284.574  3.83500000e+03 
284.502  3.65000000e+03 
284.430  3.70000000e+03 
284.359  3.69800000e+03 
284.287  3.57900000e+03 
284.215  3.55000000e+03 
284.143  3.40200000e+03 
284.072  3.26700000e+03 
284.000  3.20800000e+03 
283.928  3.00100000e+03 
283.857  2.91200000e+03 
283.785  2.89600000e+03 
283.713  2.79100000e+03 
283.641  2.63500000e+03 
283.570  2.55600000e+03 
283.498  2.45100000e+03 
283.426  2.39300000e+03 
283.354  2.34400000e+03 
283.283  2.26900000e+03 
283.211  2.25600000e+03 
283.139  2.15800000e+03 
283.068  2.19800000e+03 
282.996  2.11500000e+03 
282.924  2.11200000e+03 
282.852  2.08300000e+03 
282.781  2.06700000e+03 
282.709  2.01200000e+03 
282.637  1.95400000e+03 
282.565  2.01600000e+03 
282.494  1.89600000e+03 
282.422  1.97600000e+03 
282.350  1.92000000e+03 
282.279  1.95500000e+03 
282.207  1.99400000e+03 
282.135  1.99400000e+03 
282.063  1.91900000e+03 
281.992  1.98100000e+03 
281.920  1.93400000e+03 
281.848  2.05700000e+03 
281.776  2.01500000e+03 
281.705  1.95400000e+03 
281.633  2.00600000e+03 
281.561  2.00000000e+03 
281.490  1.96100000e+03 
281.418  1.92500000e+03 
281.346  1.96900000e+03 
281.274  1.91300000e+03 
281.203  1.95200000e+03 
281.131  1.94400000e+03 
281.059  1.98700000e+03 
280.987  2.02300000e+03 
280.916  1.91000000e+03 
280.844  2.01000000e+03 
280.772  1.91900000e+03 
280.701  1.98600000e+03 
280.629  1.89300000e+03 
280.557  1.87500000e+03 
280.485  2.00300000e+03 
280.414  1.97200000e+03 
280.342  1.98700000e+03 
280.270  1.95100000e+03 
280.198  1.92200000e+03 
280.127  1.88600000e+03 
280.055  1.90900000e+03 
279.983  1.87000000e+03 
279.912  1.82100000e+03 
279.840  1.95500000e+03 
279.768  1.91300000e+03 
279.696  1.96500000e+03 
279.625  1.93500000e+03 
279.553  1.96200000e+03 
279.481  1.92100000e+03 
279.409  1.93700000e+03 
279.338  1.91900000e+03 
279.266  1.92800000e+03 
279.194  1.87200000e+03 
279.123  1.90800000e+03 
279.051  1.93600000e+03 
[ Region 7 Curve ]
BEcenter= 284.000 
BEwidth= -9.898  
Excitation= 1486.600
Time_p_channel= 512.000 
Size= 139
288.949  2.42400000e+03 
288.877  2.36700000e+03 
288.806  2.30400000e+03 
288.734  2.40400000e+03 
288.662  2.28000000e+03 
288.591  2.29700000e+03 
288.519  2.39300000e+03 
288.447  2.37300000e+03 
288.375  2.40800000e+03 
288.304  2.41500000e+03 
288.232  2.38600000e+03 
288.160  2.36200000e+03 
288.088  2.28100000e+03 
288.017  2.36500000e+03 
287.945  2.40300000e+03 
287.873  2.38200000e+03 
287.802  2.39800000e+03 
287.730  2.42400000e+03 
287.658  2.37200000e+03 
287.586  2.41400000e+03 
287.515  2.44300000e+03 
287.443  2.45700000e+03 
287.371  2.49300000e+03 
287.299  2.55400000e+03 
287.228  2.52800000e+03 
287.156  2.52300000e+03 
287.084  2.52100000e+03 
287.013  2.53000000e+03 
286.941  2.63500000e+03 
286.869  2.61200000e+03 
286.797  2.65200000e+03 
286.726  2.73600000e+03 
286.654  2.69900000e+03 
286.582  2.74700000e+03 
286.510  2.95300000e+03 
286.439  2.81600000e+03 
286.367  2.97000000e+03 
286.295  2.95700000e+03 
286.224  3.07400000e+03 
286.152  3.02600000e+03 
286.080  3.17300000e+03 
286.008  3.24200000e+03 
285.937  3.28900000e+03 
285.865  3.36000000e+03 
285.793  3.46400000e+03 
285.721  3.39000000e+03 
285.650  3.64800000e+03 
285.578  3.57700000e+03 
285.506  3.65000000e+03 
285.435  3.72800000e+03 
285.363  3.75800000e+03 
285.291  3.89100000e+03 
285.219  3.95100000e+03 
285.148  3.92400000e+03 
285.076  4.04100000e+03 
285.004  4.19000000e+03 
284.932  4.10500000e+03 
284.861  4.14400000e+03 
284.789  4.17900000e+03 
284.717  4.20600000e+03 
284.646  4.17500000e+03 
284.574  4.12600000e+03 
284.502  4.14700000e+03 
284.430  4.12000000e+03 
284.359  4.11900000e+03 
284.287  3.99800000e+03 
284.215  3.96800000e+03 
284.143  3.86300000e+03 
284.072  3.81600000e+03 
284.000  3.64100000e+03 
283.928  3.53100000e+03 
283.857  3.56900000e+03 
283.785  3.35800000e+03 
283.713  3.32300000e+03 
283.641  3.21900000e+03 
283.570  3.07900000e+03 
283.498  2.95500000e+03 
283.426  2.93300000e+03 
283.354  2.78900000e+03 
283.283  2.63500000e+03 
283.211  2.67000000e+03 
283.139  2.60200000e+03 
283.068  2.52800000e+03 
282.996  2.38600000e+03 
282.924  2.39400000e+03 
282.852  2.28900000e+03 
282.781  2.37900000e+03 
282.709  2.25700000e+03 
282.637  2.33300000e+03 
282.565  2.35100000e+03 
282.494  2.22700000e+03 
282.422  2.20000000e+03 
282.350  2.22100000e+03 
282.279  2.20400000e+03 
282.207  2.24200000e+03 
282.135  2.25000000e+03 
282.063  2.27100000e+03 
281.992  2.27600000e+03 
281.920  2.20300000e+03 
281.848  2.23700000e+03 
281.776  2.14200000e+03 
281.705  2.20400000e+03 
281.633  2.24900000e+03 
281.561  2.16400000e+03 
281.490  2.14700000e+03 
281.418  2.17000000e+03 
281.346  2.24800000e+03 
281.274  2.22400000e+03 
281.203  2.20100000e+03 
281.131  2.18600000e+03 
281.059  2.21600000e+03 
280.987  2.18800000e+03 
280.916  2.22500000e+03 
280.844  2.17100000e+03 
280.772  2.16200000e+03 
280.701  2.13700000e+03 
280.629  2.18600000e+03 
280.557  2.14500000e+03 
280.485  2.15900000e+03 
280.414  2.19400000e+03 
280.342  2.18000000e+03 
280.270  2.25600000e+03 
280.198  2.09300000e+03 
280.127  2.19400000e+03 
280.055  2.10200000e+03 
279.983  2.24700000e+03 
279.912  2.20500000e+03 
279.840  2.10000000e+03 
279.768  2.19300000e+03 
279.696  2.29600000e+03 
279.625  2.21800000e+03 
279.553  2.16000000e+03 
279.481  2.21900000e+03 
279.409  2.11500000e+03 
279.338  2.22100000e+03 
279.266  2.17800000e+03 
279.194  2.18300000e+03 
279.123  2.23500000e+03 
279.051  2.13400000e+03 
[ Region 8 Curve ]
BEcenter= 284.000 
BEwidth= -9.898  
Excitation= 1486.600
Time_p_channel= 512.000 
Size= 139
288.949  2.31200000e+03 
288.877  2.30200000e+03 
288.806  2.29000000e+03 
288.734  2.27600000e+03 
288.662  2.34400000e+03 
288.591  2.32200000e+03 
288.519  2.35500000e+03 
288.447  2.28700000e+03 
288.375  2.27300000e+03 
288.304  2.30800000e+03 
288.232  2.35900000e+03 
288.160  2.29800000e+03 
288.088  2.36000000e+03 
288.017  2.25300000e+03 
287.945  2.26800000e+03 
287.873  2.37300000e+03 
287.802  2.36400000e+03 
287.730  2.41900000e+03 
287.658  2.34300000e+03 
287.586  2.28300000e+03 
287.515  2.40900000e+03 
287.443  2.43400000e+03 
287.371  2.42800000e+03 
287.299  2.40100000e+03 
287.228  2.36700000e+03 
287.156  2.56600000e+03 
287.084  2.51600000e+03 
287.013  2.51200000e+03 
286.941  2.57400000e+03 
286.869  2.54000000e+03 
286.797  2.54000000e+03 
286.726  2.58000000e+03 
286.654  2.59400000e+03 
286.582  2.74100000e+03 
286.510  2.80200000e+03 
286.439  2.75100000e+03 
286.367  2.89100000e+03 
286.295  2.75700000e+03 
286.224  2.95300000e+03 
286.152  2.85300000e+03 
286.080  2.93000000e+03 
286.008  3.11800000e+03 
285.937  3.09900000e+03 
285.865  3.17000000e+03 
285.793  3.13900000e+03 
285.721  3.25700000e+03 
285.650  3.24700000e+03 
285.578  3.39900000e+03 
285.506  3.43900000e+03 
285.435  3.45600000e+03 
285.363  3.64200000e+03 
285.291  3.56300000e+03 
285.219  3.70100000e+03 
285.148  3.63900000e+03 
285.076  3.80300000e+03 
285.004  3.75500000e+03 
284.932  3.92200000e+03 
284.861  3.95700000e+03 
284.789  3.97400000e+03 
284.717  3.87800000e+03 
284.646  3.87200000e+03 
284.574  3.99400000e+03 
284.502  3.84700000e+03 
284.430  4.03500000e+03 
284.359  4.01600000e+03 
284.287  3.98700000e+03 
284.215  3.88300000e+03 
284.143  3.80500000e+03 
284.072  3.79400000e+03 
284.000  3.70300000e+03 
283.928  3.67600000e+03 
283.857  3.67600000e+03 
283.785  3.50100000e+03 
283.713  3.25300000e+03 
283.641  3.40600000e+03 
283.570  3.20800000e+03 
283.498  3.13600000e+03 
283.426  3.11500000e+03 
283.354  2.95200000e+03 
283.283  2.93200000e+03 
283.211  2.75000000e+03 
283.139  2.71400000e+03 
283.068  2.67600000e+03 
282.996  2.55100000e+03 
282.924  2.60000000e+03 
282.852  2.43000000e+03 
282.781  2.42400000e+03 
282.709  2.35600000e+03 
282.637  2.37100000e+03 
282.565  2.28600000e+03 
282.494  2.28000000e+03 
282.422  2.18200000e+03 
282.350  2.28100000e+03 
282.279  2.25000000e+03 
282.207  2.20700000e+03 
282.135  2.14900000e+03 
282.063  2.15100000e+03 
281.992  2.15500000e+03 
281.920  2.11300000e+03 
281.848  2.13600000e+03 
281.776  2.08200000e+03 
281.705  2.20300000e+03 
281.633  2.23500000e+03 
281.561  2.16300000e+03 
281.490  2.06200000e+03 
281.418  2.18900000e+03 
281.346  2.13700000e+03 
281.274  2.14300000e+03 
281.203  2.16000000e+03 
281.131  2.16400000e+03 
281.059  2.06900000e+03 
280.987  2.19300000e+03 
280.916  2.18300000e+03 
280.844  2.19800000e+03 
280.772  2.10500000e+03 
280.701  2.12100000e+03 
280.629  2.09800000e+03 
280.557  2.19100000e+03 
280.485  2.14700000e+03 
280.414  2.13300000e+03 
280.342  2.13500000e+03 
280.270  2.05500000e+03 
280.198  2.10600000e+03 
280.127  2.12700000e+03 
280.055  2.17100000e+03 
279.983  2.21200000e+03 
279.912  2.10300000e+03 
279.840  2.08900000e+03 
279.768  2.19600000e+03 
279.696  2.12200000e+03 
279.625  2.17300000e+03 
279.553  2.14400000e+03 
279.481  2.17500000e+03 
279.409  2.16700000e+03 
279.338  2.14500000e+03 
279.266  2.14800000e+03 
279.194  2.12800000e+03 
279.123  2.07100000e+03 
279.051  2.15200000e+03 
[ Region 9 Curve ]
BEcenter= 284.000 
BEwidth= -9.898  
Excitation= 1486.600
Time_p_channel= 512.000 
Size= 139
288.949  1.78600000e+03 
288.877  1.86600000e+03 
288.806  1.88300000e+03 
288.734  1.74900000e+03 
288.662  1.87600000e+03 
288.591  1.84200000e+03 
288.519  1.79500000e+03 
288.447  1.70800000e+03 
288.375  1.78300000e+03 
288.304  1.78900000e+03 
288.232  1.84100000e+03 
288.160  1.79500000e+03 
288.088  1.82400000e+03 
288.017  1.79500000e+03 
287.945  1.81700000e+03 
287.873  1.78900000e+03 
287.802  1.80100000e+03 
287.730  1.85300000e+03 
287.658  1.86000000e+03 
287.586  1.87200000e+03 
287.515  1.82800000e+03 
287.443  1.80700000e+03 
287.371  1.90400000e+03 
287.299  1.89700000e+03 
287.228  1.88900000e+03 
287.156  1.98900000e+03 
287.084  1.87700000e+03 
287.013  1.95100000e+03 
286.941  1.96100000e+03 
286.869  1.93900000e+03 
286.797  1.97600000e+03 
286.726  2.05700000e+03 
286.654  2.03800000e+03 
286.582  2.07900000e+03 
286.510  2.06400000e+03 
286.439  2.09600000e+03 
286.367  2.14900000e+03 
286.295  2.21400000e+03 
286.224  2.25500000e+03 
286.152  2.32800000e+03 
286.080  2.29900000e+03 
286.008  2.35200000e+03 
285.937  2.41700000e+03 
285.865  2.45000000e+03 
285.793  2.45500000e+03 
285.721  2.45700000e+03 
285.650  2.50200000e+03 
285.578  2.58900000e+03 
285.506  2.60900000e+03 
285.435  2.79100000e+03 
285.363  2.71200000e+03 
285.291  2.79800000e+03 
285.219  2.74700000e+03 
285.148  2.73600000e+03 
285.076  2.82300000e+03 
285.004  2.94800000e+03 
284.932  2.92600000e+03 
284.861  2.93800000e+03 
284.789  2.93800000e+03 
284.717  2.96900000e+03 
284.646  2.90800000e+03 
284.574  2.94900000e+03 
284.502  2.94900000e+03 
284.430  3.00200000e+03 
284.359  2.97600000e+03 
284.287  2.88600000e+03 
284.215  3.00100000e+03 
284.143  2.89900000e+03 
284.072  2.88700000e+03 
284.000  2.85300000e+03 
283.928  2.74600000e+03 
283.857  2.77300000e+03 
283.785  2.63900000e+03 
283.713  2.67600000e+03 
283.641  2.61100000e+03 
283.570  2.51300000e+03 
283.498  2.45200000e+03 
283.426  2.47500000e+03 
283.354  2.28900000e+03 
283.283  2.21500000e+03 
283.211  2.22200000e+03 
283.139  2.12900000e+03 
283.068  2.12500000e+03 
282.996  1.98300000e+03 
282.924  2.05000000e+03 
282.852  1.93800000e+03 
282.781  1.90900000e+03 
282.709  1.77500000e+03 
282.637  1.85300000e+03 
282.565  1.89400000e+03 
282.494  1.80000000e+03 
282.422  1.72000000e+03 
282.350  1.71900000e+03 
282.279  1.73600000e+03 
282.207  1.68600000e+03 
282.135  1.71700000e+03 
282.063  1.62400000e+03 
281.992  1.70000000e+03 
281.920  1.76300000e+03 
281.848  1.68500000e+03 
281.776  1.65400000e+03 
281.705  1.67800000e+03 
281.633  1.69100000e+03 
281.561  1.72300000e+03 
281.490  1.62600000e+03 
281.418  1.69900000e+03 
281.346  1.72600000e+03 
281.274  1.70200000e+03 
281.203  1.64500000e+03 
281.131  1.68600000e+03 
281.059  1.69600000e+03 
280.987  1.67700000e+03 
280.916  1.70400000e+03 
280.844  1.61100000e+03 
280.772  1.64400000e+03 
280.701  1.67600000e+03 
280.629  1.63600000e+03 
280.557  1.63600000e+03 
280.485  1.65000000e+03 
280.414  1.66300000e+03 
280.342  1.63200000e+03 
280.270  1.65100000e+03 
280.198  1.71900000e+03 
280.127  1.61800000e+03 
280.055  1.63100000e+03 
279.983  1.67100000e+03 
279.912  1.67000000e+03 
279.840  1.60700000e+03 
279.768  1.63200000e+03 
279.696  1.55100000e+03 
279.625  1.60700000e+03 
279.553  1.68100000e+03 
279.481  1.72100000e+03 
279.409  1.67200000e+03 
279.338  1.70300000e+03 
279.266  1.66000000e+03 
279.194  1.60500000e+03 
279.123  1.58600000e+03 
279.051  1.64600000e+03 
