[ Experiment Parameters ]
Experiment Description= C1s mono=6.0 +-0.1 
Number_of_Regions_in_Experiment= 9 

Original_File_name= c:\alexesca\data\97071503.xps 
Instrument= ESCA-West
Date= 07-15-1997
Time=  10:04:55

[ Region 1 Parameters ]
Region_Description = C 1s    dithered                           
BEcenter(eV) = 284.000000
BEwidth(eV) = 10.000000
BEstep(eV) = 0.071875
Dwell_Time(sec) = 1.000000
N_o_scans = 1  
N_o_Channels = 139  
Excitation_Energy = 0.000000  
Scan_mode = 0  (DITHERED)

[ Region 2 Parameters ]
Region_Description = C 1s    dithered                           
BEcenter(eV) = 284.000000
BEwidth(eV) = 10.000000
BEstep(eV) = 0.071875
Dwell_Time(sec) = 1.000000
N_o_scans = 1  
N_o_Channels = 139  
Excitation_Energy = 0.000000  
Scan_mode = 0  (DITHERED)

[ Region 3 Parameters ]
Region_Description = C 1s    dithered                           
BEcenter(eV) = 284.000000
BEwidth(eV) = 10.000000
BEstep(eV) = 0.071875
Dwell_Time(sec) = 1.000000
N_o_scans = 1  
N_o_Channels = 139  
Excitation_Energy = 0.000000  
Scan_mode = 0  (DITHERED)

[ Region 4 Parameters ]
Region_Description = C 1s    dithered                           
BEcenter(eV) = 284.000000
BEwidth(eV) = 10.000000
BEstep(eV) = 0.071875
Dwell_Time(sec) = 1.000000
N_o_scans = 1  
N_o_Channels = 139  
Excitation_Energy = 0.000000  
Scan_mode = 0  (DITHERED)

[ Region 5 Parameters ]
Region_Description = C 1s    dithered                           
BEcenter(eV) = 284.000000
BEwidth(eV) = 10.000000
BEstep(eV) = 0.071875
Dwell_Time(sec) = 1.000000
N_o_scans = 1  
N_o_Channels = 139  
Excitation_Energy = 0.000000  
Scan_mode = 0  (DITHERED)

[ Region 6 Parameters ]
Region_Description = C 1s    dithered                           
BEcenter(eV) = 284.000000
BEwidth(eV) = 10.000000
BEstep(eV) = 0.071875
Dwell_Time(sec) = 1.000000
N_o_scans = 1  
N_o_Channels = 139  
Excitation_Energy = 0.000000  
Scan_mode = 0  (DITHERED)

[ Region 7 Parameters ]
Region_Description = C 1s    dithered                           
BEcenter(eV) = 284.000000
BEwidth(eV) = 10.000000
BEstep(eV) = 0.071875
Dwell_Time(sec) = 1.000000
N_o_scans = 1  
N_o_Channels = 139  
Excitation_Energy = 0.000000  
Scan_mode = 0  (DITHERED)

[ Region 8 Parameters ]
Region_Description = C 1s    dithered                           
BEcenter(eV) = 284.000000
BEwidth(eV) = 10.000000
BEstep(eV) = 0.071875
Dwell_Time(sec) = 1.000000
N_o_scans = 1  
N_o_Channels = 139  
Excitation_Energy = 0.000000  
Scan_mode = 0  (DITHERED)

[ Region 9 Parameters ]
Region_Description = C 1s    dithered                           
BEcenter(eV) = 284.000000
BEwidth(eV) = 10.000000
BEstep(eV) = 0.071875
Dwell_Time(sec) = 1.000000
N_o_scans = 1  
N_o_Channels = 139  
Excitation_Energy = 0.000000  
Scan_mode = 0  (DITHERED)

[ Region 1 Curve ]
BEcenter= 284.000 
BEwidth= -9.898  
Excitation= 1486.600
Time_p_channel= 512.000 
Size= 139
288.949  3.88000000e+02 
288.877  3.53000000e+02 
288.806  3.49000000e+02 
288.734  3.71000000e+02 
288.662  3.68000000e+02 
288.591  3.43000000e+02 
288.519  3.79000000e+02 
288.447  3.42000000e+02 
288.375  3.76000000e+02 
288.304  3.43000000e+02 
288.232  3.76000000e+02 
288.160  3.89000000e+02 
288.088  3.83000000e+02 
288.017  3.91000000e+02 
287.945  3.76000000e+02 
287.873  3.60000000e+02 
287.802  4.06000000e+02 
287.730  3.76000000e+02 
287.658  3.90000000e+02 
287.586  3.70000000e+02 
287.515  3.79000000e+02 
287.443  3.89000000e+02 
287.371  3.96000000e+02 
287.299  3.92000000e+02 
287.228  4.27000000e+02 
287.156  4.27000000e+02 
287.084  4.67000000e+02 
287.013  4.23000000e+02 
286.941  4.67000000e+02 
286.869  4.82000000e+02 
286.797  4.27000000e+02 
286.726  4.71000000e+02 
286.654  4.77000000e+02 
286.582  4.79000000e+02 
286.510  5.01000000e+02 
286.439  5.50000000e+02 
286.367  5.36000000e+02 
286.295  5.51000000e+02 
286.224  5.64000000e+02 
286.152  5.75000000e+02 
286.080  6.25000000e+02 
286.008  6.04000000e+02 
285.937  6.23000000e+02 
285.865  6.64000000e+02 
285.793  6.54000000e+02 
285.721  7.05000000e+02 
285.650  6.93000000e+02 
285.578  7.23000000e+02 
285.506  7.15000000e+02 
285.435  7.71000000e+02 
285.363  7.54000000e+02 
285.291  7.86000000e+02 
285.219  7.69000000e+02 
285.148  8.07000000e+02 
285.076  7.63000000e+02 
285.004  7.86000000e+02 
284.932  7.94000000e+02 
284.861  7.42000000e+02 
284.789  7.42000000e+02 
284.717  7.43000000e+02 
284.646  7.23000000e+02 
284.574  7.01000000e+02 
284.502  7.01000000e+02 
284.430  6.26000000e+02 
284.359  6.16000000e+02 
284.287  5.84000000e+02 
284.215  5.39000000e+02 
284.143  4.79000000e+02 
284.072  4.66000000e+02 
284.000  4.93000000e+02 
283.928  4.58000000e+02 
283.857  4.25000000e+02 
283.785  4.32000000e+02 
283.713  4.03000000e+02 
283.641  3.61000000e+02 
283.570  3.86000000e+02 
283.498  3.69000000e+02 
283.426  3.58000000e+02 
283.354  3.50000000e+02 
283.283  3.47000000e+02 
283.211  3.52000000e+02 
283.139  3.54000000e+02 
283.068  3.46000000e+02 
282.996  2.85000000e+02 
282.924  3.42000000e+02 
282.852  3.19000000e+02 
282.781  3.59000000e+02 
282.709  3.18000000e+02 
282.637  3.30000000e+02 
282.565  3.15000000e+02 
282.494  3.44000000e+02 
282.422  3.29000000e+02 
282.350  3.24000000e+02 
282.279  2.95000000e+02 
282.207  3.07000000e+02 
282.135  3.19000000e+02 
282.063  3.27000000e+02 
281.992  3.00000000e+02 
281.920  3.17000000e+02 
281.848  3.27000000e+02 
281.776  3.21000000e+02 
281.705  3.21000000e+02 
281.633  3.04000000e+02 
281.561  3.28000000e+02 
281.490  3.41000000e+02 
281.418  3.48000000e+02 
281.346  3.22000000e+02 
281.274  2.96000000e+02 
281.203  3.38000000e+02 
281.131  3.61000000e+02 
281.059  3.37000000e+02 
280.987  3.30000000e+02 
280.916  3.04000000e+02 
280.844  3.35000000e+02 
280.772  3.12000000e+02 
280.701  2.91000000e+02 
280.629  2.95000000e+02 
280.557  3.10000000e+02 
280.485  3.36000000e+02 
280.414  3.16000000e+02 
280.342  3.23000000e+02 
280.270  3.30000000e+02 
280.198  3.46000000e+02 
280.127  3.21000000e+02 
280.055  3.02000000e+02 
279.983  3.33000000e+02 
279.912  2.98000000e+02 
279.840  3.36000000e+02 
279.768  3.24000000e+02 
279.696  3.34000000e+02 
279.625  3.01000000e+02 
279.553  3.32000000e+02 
279.481  3.25000000e+02 
279.409  2.93000000e+02 
279.338  3.38000000e+02 
279.266  3.15000000e+02 
279.194  3.12000000e+02 
279.123  3.14000000e+02 
279.051  2.93000000e+02 
[ Region 2 Curve ]
BEcenter= 284.000 
BEwidth= -9.898  
Excitation= 1486.600
Time_p_channel= 512.000 
Size= 139
288.949  5.66000000e+02 
288.877  5.26000000e+02 
288.806  5.76000000e+02 
288.734  5.71000000e+02 
288.662  5.85000000e+02 
288.591  5.40000000e+02 
288.519  6.23000000e+02 
288.447  6.12000000e+02 
288.375  5.79000000e+02 
288.304  5.50000000e+02 
288.232  5.71000000e+02 
288.160  5.73000000e+02 
288.088  5.50000000e+02 
288.017  5.90000000e+02 
287.945  6.36000000e+02 
287.873  6.82000000e+02 
287.802  6.36000000e+02 
287.730  6.43000000e+02 
287.658  6.11000000e+02 
287.586  6.81000000e+02 
287.515  6.67000000e+02 
287.443  6.96000000e+02 
287.371  6.70000000e+02 
287.299  6.95000000e+02 
287.228  6.65000000e+02 
287.156  7.52000000e+02 
287.084  7.39000000e+02 
287.013  7.53000000e+02 
286.941  7.50000000e+02 
286.869  7.82000000e+02 
286.797  7.97000000e+02 
286.726  8.26000000e+02 
286.654  8.89000000e+02 
286.582  8.72000000e+02 
286.510  8.83000000e+02 
286.439  9.26000000e+02 
286.367  9.15000000e+02 
286.295  9.26000000e+02 
286.224  9.90000000e+02 
286.152  1.03000000e+03 
286.080  1.01800000e+03 
286.008  1.04800000e+03 
285.937  1.06400000e+03 
285.865  1.16300000e+03 
285.793  1.14500000e+03 
285.721  1.17400000e+03 
285.650  1.17200000e+03 
285.578  1.25200000e+03 
285.506  1.25500000e+03 
285.435  1.30300000e+03 
285.363  1.22300000e+03 
285.291  1.21400000e+03 
285.219  1.20700000e+03 
285.148  1.22300000e+03 
285.076  1.20700000e+03 
285.004  1.20600000e+03 
284.932  1.12800000e+03 
284.861  1.05500000e+03 
284.789  1.06900000e+03 
284.717  1.03700000e+03 
284.646  9.94000000e+02 
284.574  9.22000000e+02 
284.502  8.43000000e+02 
284.430  8.44000000e+02 
284.359  8.06000000e+02 
284.287  8.13000000e+02 
284.215  7.15000000e+02 
284.143  7.11000000e+02 
284.072  7.39000000e+02 
284.000  6.16000000e+02 
283.928  5.83000000e+02 
283.857  6.05000000e+02 
283.785  6.02000000e+02 
283.713  5.94000000e+02 
283.641  6.22000000e+02 
283.570  5.71000000e+02 
283.498  5.71000000e+02 
283.426  5.36000000e+02 
283.354  5.50000000e+02 
283.283  5.78000000e+02 
283.211  5.63000000e+02 
283.139  5.92000000e+02 
283.068  5.24000000e+02 
282.996  5.40000000e+02 
282.924  5.44000000e+02 
282.852  5.44000000e+02 
282.781  5.58000000e+02 
282.709  5.13000000e+02 
282.637  5.34000000e+02 
282.565  5.60000000e+02 
282.494  5.36000000e+02 
282.422  5.64000000e+02 
282.350  5.48000000e+02 
282.279  5.33000000e+02 
282.207  5.14000000e+02 
282.135  5.33000000e+02 
282.063  5.40000000e+02 
281.992  5.10000000e+02 
281.920  5.71000000e+02 
281.848  5.22000000e+02 
281.776  5.50000000e+02 
281.705  5.09000000e+02 
281.633  5.02000000e+02 
281.561  5.59000000e+02 
281.490  5.25000000e+02 
281.418  5.04000000e+02 
281.346  5.51000000e+02 
281.274  5.34000000e+02 
281.203  5.56000000e+02 
281.131  5.47000000e+02 
281.059  5.14000000e+02 
280.987  5.28000000e+02 
280.916  5.07000000e+02 
280.844  4.82000000e+02 
280.772  5.42000000e+02 
280.701  5.29000000e+02 
280.629  5.25000000e+02 
280.557  5.24000000e+02 
280.485  5.29000000e+02 
280.414  5.29000000e+02 
280.342  5.06000000e+02 
280.270  5.45000000e+02 
280.198  5.66000000e+02 
280.127  5.37000000e+02 
280.055  5.47000000e+02 
279.983  5.70000000e+02 
279.912  5.20000000e+02 
279.840  5.13000000e+02 
279.768  5.20000000e+02 
279.696  4.94000000e+02 
279.625  5.26000000e+02 
279.553  5.49000000e+02 
279.481  5.57000000e+02 
279.409  5.04000000e+02 
279.338  5.64000000e+02 
279.266  5.10000000e+02 
279.194  5.69000000e+02 
279.123  5.48000000e+02 
279.051  5.31000000e+02 
[ Region 3 Curve ]
BEcenter= 284.000 
BEwidth= -9.898  
Excitation= 1486.600
Time_p_channel= 512.000 
Size= 139
288.949  7.15000000e+02 
288.877  6.81000000e+02 
288.806  7.23000000e+02 
288.734  7.27000000e+02 
288.662  6.99000000e+02 
288.591  7.52000000e+02 
288.519  6.53000000e+02 
288.447  6.50000000e+02 
288.375  6.79000000e+02 
288.304  6.99000000e+02 
288.232  6.88000000e+02 
288.160  6.94000000e+02 
288.088  7.07000000e+02 
288.017  6.83000000e+02 
287.945  6.71000000e+02 
287.873  6.86000000e+02 
287.802  7.29000000e+02 
287.730  7.29000000e+02 
287.658  7.35000000e+02 
287.586  7.49000000e+02 
287.515  7.52000000e+02 
287.443  7.86000000e+02 
287.371  7.78000000e+02 
287.299  7.78000000e+02 
287.228  8.05000000e+02 
287.156  8.41000000e+02 
287.084  8.14000000e+02 
287.013  8.84000000e+02 
286.941  9.27000000e+02 
286.869  9.38000000e+02 
286.797  8.91000000e+02 
286.726  9.55000000e+02 
286.654  9.49000000e+02 
286.582  9.67000000e+02 
286.510  1.00500000e+03 
286.439  1.00600000e+03 
286.367  1.04400000e+03 
286.295  1.14100000e+03 
286.224  1.10900000e+03 
286.152  1.19300000e+03 
286.080  1.18500000e+03 
286.008  1.20000000e+03 
285.937  1.32600000e+03 
285.865  1.31300000e+03 
285.793  1.29900000e+03 
285.721  1.40000000e+03 
285.650  1.41500000e+03 
285.578  1.37400000e+03 
285.506  1.47000000e+03 
285.435  1.48200000e+03 
285.363  1.41100000e+03 
285.291  1.48500000e+03 
285.219  1.47100000e+03 
285.148  1.40000000e+03 
285.076  1.38000000e+03 
285.004  1.41300000e+03 
284.932  1.33400000e+03 
284.861  1.30000000e+03 
284.789  1.24100000e+03 
284.717  1.20500000e+03 
284.646  1.13500000e+03 
284.574  1.08400000e+03 
284.502  1.06000000e+03 
284.430  9.83000000e+02 
284.359  9.40000000e+02 
284.287  8.14000000e+02 
284.215  8.55000000e+02 
284.143  8.00000000e+02 
284.072  7.49000000e+02 
284.000  7.20000000e+02 
283.928  7.21000000e+02 
283.857  7.24000000e+02 
283.785  7.16000000e+02 
283.713  6.67000000e+02 
283.641  6.82000000e+02 
283.570  6.47000000e+02 
283.498  6.46000000e+02 
283.426  6.54000000e+02 
283.354  6.44000000e+02 
283.283  6.92000000e+02 
283.211  6.54000000e+02 
283.139  6.48000000e+02 
283.068  6.92000000e+02 
282.996  6.27000000e+02 
282.924  6.69000000e+02 
282.852  6.43000000e+02 
282.781  6.22000000e+02 
282.709  6.72000000e+02 
282.637  6.17000000e+02 
282.565  6.52000000e+02 
282.494  6.23000000e+02 
282.422  5.83000000e+02 
282.350  6.76000000e+02 
282.279  6.93000000e+02 
282.207  6.09000000e+02 
282.135  6.31000000e+02 
282.063  6.24000000e+02 
281.992  6.42000000e+02 
281.920  6.03000000e+02 
281.848  6.43000000e+02 
281.776  6.82000000e+02 
281.705  6.61000000e+02 
281.633  6.56000000e+02 
281.561  6.11000000e+02 
281.490  6.15000000e+02 
281.418  6.00000000e+02 
281.346  6.02000000e+02 
281.274  6.33000000e+02 
281.203  6.09000000e+02 
281.131  6.32000000e+02 
281.059  6.10000000e+02 
280.987  6.50000000e+02 
280.916  6.63000000e+02 
280.844  6.19000000e+02 
280.772  6.07000000e+02 
280.701  6.17000000e+02 
280.629  6.20000000e+02 
280.557  5.97000000e+02 
280.485  6.25000000e+02 
280.414  6.74000000e+02 
280.342  6.09000000e+02 
280.270  6.50000000e+02 
280.198  6.31000000e+02 
280.127  6.57000000e+02 
280.055  6.51000000e+02 
279.983  6.16000000e+02 
279.912  5.79000000e+02 
279.840  6.25000000e+02 
279.768  6.94000000e+02 
279.696  6.43000000e+02 
279.625  6.58000000e+02 
279.553  6.33000000e+02 
279.481  6.06000000e+02 
279.409  6.36000000e+02 
279.338  6.61000000e+02 
279.266  6.61000000e+02 
279.194  6.18000000e+02 
279.123  6.38000000e+02 
279.051  6.83000000e+02 
[ Region 4 Curve ]
BEcenter= 284.000 
BEwidth= -9.898  
Excitation= 1486.600
Time_p_channel= 512.000 
Size= 139
288.949  7.14000000e+02 
288.877  7.28000000e+02 
288.806  6.91000000e+02 
288.734  7.01000000e+02 
288.662  6.88000000e+02 
288.591  6.70000000e+02 
288.519  7.21000000e+02 
288.447  7.37000000e+02 
288.375  6.71000000e+02 
288.304  7.42000000e+02 
288.232  7.52000000e+02 
288.160  7.63000000e+02 
288.088  6.96000000e+02 
288.017  7.60000000e+02 
287.945  7.20000000e+02 
287.873  8.01000000e+02 
287.802  7.67000000e+02 
287.730  7.82000000e+02 
287.658  7.49000000e+02 
287.586  8.27000000e+02 
287.515  8.65000000e+02 
287.443  8.37000000e+02 
287.371  8.19000000e+02 
287.299  8.34000000e+02 
287.228  8.80000000e+02 
287.156  8.78000000e+02 
287.084  9.12000000e+02 
287.013  9.14000000e+02 
286.941  9.64000000e+02 
286.869  9.98000000e+02 
286.797  9.82000000e+02 
286.726  9.89000000e+02 
286.654  9.76000000e+02 
286.582  1.06200000e+03 
286.510  1.06500000e+03 
286.439  1.06400000e+03 
286.367  1.12700000e+03 
286.295  1.16200000e+03 
286.224  1.10100000e+03 
286.152  1.15900000e+03 
286.080  1.20600000e+03 
286.008  1.25300000e+03 
285.937  1.30000000e+03 
285.865  1.25900000e+03 
285.793  1.27800000e+03 
285.721  1.40500000e+03 
285.650  1.34100000e+03 
285.578  1.33600000e+03 
285.506  1.36600000e+03 
285.435  1.40900000e+03 
285.363  1.44900000e+03 
285.291  1.36700000e+03 
285.219  1.33100000e+03 
285.148  1.35800000e+03 
285.076  1.24300000e+03 
285.004  1.19900000e+03 
284.932  1.16800000e+03 
284.861  1.13500000e+03 
284.789  1.11000000e+03 
284.717  1.05800000e+03 
284.646  1.00600000e+03 
284.574  9.55000000e+02 
284.502  9.50000000e+02 
284.430  8.94000000e+02 
284.359  8.05000000e+02 
284.287  8.03000000e+02 
284.215  7.45000000e+02 
284.143  8.41000000e+02 
284.072  7.35000000e+02 
284.000  7.22000000e+02 
283.928  7.30000000e+02 
283.857  7.05000000e+02 
283.785  6.71000000e+02 
283.713  7.18000000e+02 
283.641  6.60000000e+02 
283.570  6.80000000e+02 
283.498  6.00000000e+02 
283.426  6.62000000e+02 
283.354  7.20000000e+02 
283.283  6.68000000e+02 
283.211  6.52000000e+02 
283.139  6.35000000e+02 
283.068  6.43000000e+02 
282.996  6.06000000e+02 
282.924  6.53000000e+02 
282.852  6.21000000e+02 
282.781  6.46000000e+02 
282.709  6.90000000e+02 
282.637  6.12000000e+02 
282.565  6.75000000e+02 
282.494  6.63000000e+02 
282.422  6.18000000e+02 
282.350  6.23000000e+02 
282.279  6.30000000e+02 
282.207  6.20000000e+02 
282.135  6.02000000e+02 
282.063  6.60000000e+02 
281.992  6.43000000e+02 
281.920  6.02000000e+02 
281.848  6.55000000e+02 
281.776  6.86000000e+02 
281.705  6.06000000e+02 
281.633  6.47000000e+02 
281.561  6.39000000e+02 
281.490  6.34000000e+02 
281.418  6.26000000e+02 
281.346  5.65000000e+02 
281.274  6.40000000e+02 
281.203  6.41000000e+02 
281.131  6.13000000e+02 
281.059  5.92000000e+02 
280.987  6.11000000e+02 
280.916  5.96000000e+02 
280.844  6.42000000e+02 
280.772  5.79000000e+02 
280.701  6.27000000e+02 
280.629  6.38000000e+02 
280.557  6.39000000e+02 
280.485  6.47000000e+02 
280.414  6.00000000e+02 
280.342  6.67000000e+02 
280.270  6.34000000e+02 
280.198  6.08000000e+02 
280.127  6.07000000e+02 
280.055  6.40000000e+02 
279.983  6.76000000e+02 
279.912  6.40000000e+02 
279.840  6.15000000e+02 
279.768  6.09000000e+02 
279.696  5.81000000e+02 
279.625  6.46000000e+02 
279.553  6.01000000e+02 
279.481  6.18000000e+02 
279.409  6.48000000e+02 
279.338  6.13000000e+02 
279.266  6.07000000e+02 
279.194  6.30000000e+02 
279.123  6.41000000e+02 
279.051  6.21000000e+02 
[ Region 5 Curve ]
BEcenter= 284.000 
BEwidth= -9.898  
Excitation= 1486.600
Time_p_channel= 512.000 
Size= 139
288.949  6.80000000e+02 
288.877  6.49000000e+02 
288.806  6.40000000e+02 
288.734  6.60000000e+02 
288.662  6.43000000e+02 
288.591  6.55000000e+02 
288.519  6.80000000e+02 
288.447  7.11000000e+02 
288.375  7.07000000e+02 
288.304  6.68000000e+02 
288.232  6.74000000e+02 
288.160  6.76000000e+02 
288.088  6.41000000e+02 
288.017  6.76000000e+02 
287.945  7.18000000e+02 
287.873  6.84000000e+02 
287.802  7.33000000e+02 
287.730  7.60000000e+02 
287.658  6.82000000e+02 
287.586  7.56000000e+02 
287.515  7.64000000e+02 
287.443  7.56000000e+02 
287.371  8.35000000e+02 
287.299  7.95000000e+02 
287.228  8.54000000e+02 
287.156  8.64000000e+02 
287.084  8.39000000e+02 
287.013  8.39000000e+02 
286.941  8.63000000e+02 
286.869  8.79000000e+02 
286.797  9.13000000e+02 
286.726  1.01200000e+03 
286.654  9.46000000e+02 
286.582  9.45000000e+02 
286.510  9.60000000e+02 
286.439  1.01800000e+03 
286.367  1.06200000e+03 
286.295  1.06900000e+03 
286.224  1.07000000e+03 
286.152  1.12700000e+03 
286.080  1.17500000e+03 
286.008  1.19500000e+03 
285.937  1.21000000e+03 
285.865  1.19900000e+03 
285.793  1.22900000e+03 
285.721  1.20600000e+03 
285.650  1.27900000e+03 
285.578  1.22500000e+03 
285.506  1.24500000e+03 
285.435  1.28800000e+03 
285.363  1.27500000e+03 
285.291  1.28100000e+03 
285.219  1.23000000e+03 
285.148  1.15300000e+03 
285.076  1.11100000e+03 
285.004  1.10700000e+03 
284.932  1.03300000e+03 
284.861  1.03100000e+03 
284.789  9.83000000e+02 
284.717  9.80000000e+02 
284.646  9.16000000e+02 
284.574  9.01000000e+02 
284.502  8.43000000e+02 
284.430  8.36000000e+02 
284.359  7.24000000e+02 
284.287  7.42000000e+02 
284.215  7.06000000e+02 
284.143  6.67000000e+02 
284.072  7.25000000e+02 
284.000  6.95000000e+02 
283.928  6.26000000e+02 
283.857  6.98000000e+02 
283.785  6.46000000e+02 
283.713  6.23000000e+02 
283.641  6.69000000e+02 
283.570  5.93000000e+02 
283.498  6.25000000e+02 
283.426  6.11000000e+02 
283.354  6.18000000e+02 
283.283  6.42000000e+02 
283.211  5.89000000e+02 
283.139  6.36000000e+02 
283.068  5.96000000e+02 
282.996  5.98000000e+02 
282.924  6.02000000e+02 
282.852  6.23000000e+02 
282.781  5.97000000e+02 
282.709  6.23000000e+02 
282.637  6.15000000e+02 
282.565  6.04000000e+02 
282.494  6.03000000e+02 
282.422  6.13000000e+02 
282.350  6.14000000e+02 
282.279  5.76000000e+02 
282.207  6.23000000e+02 
282.135  6.09000000e+02 
282.063  6.27000000e+02 
281.992  6.01000000e+02 
281.920  5.71000000e+02 
281.848  6.05000000e+02 
281.776  5.81000000e+02 
281.705  6.41000000e+02 
281.633  6.09000000e+02 
281.561  6.03000000e+02 
281.490  6.11000000e+02 
281.418  5.74000000e+02 
281.346  6.02000000e+02 
281.274  6.07000000e+02 
281.203  6.07000000e+02 
281.131  5.69000000e+02 
281.059  5.98000000e+02 
280.987  6.40000000e+02 
280.916  5.91000000e+02 
280.844  5.37000000e+02 
280.772  6.52000000e+02 
280.701  5.79000000e+02 
280.629  6.18000000e+02 
280.557  5.78000000e+02 
280.485  5.75000000e+02 
280.414  6.24000000e+02 
280.342  5.52000000e+02 
280.270  6.34000000e+02 
280.198  5.97000000e+02 
280.127  5.95000000e+02 
280.055  5.66000000e+02 
279.983  5.65000000e+02 
279.912  6.34000000e+02 
279.840  6.40000000e+02 
279.768  5.70000000e+02 
279.696  6.31000000e+02 
279.625  5.69000000e+02 
279.553  6.28000000e+02 
279.481  5.84000000e+02 
279.409  5.93000000e+02 
279.338  6.09000000e+02 
279.266  6.36000000e+02 
279.194  5.86000000e+02 
279.123  6.13000000e+02 
279.051  5.87000000e+02 
[ Region 6 Curve ]
BEcenter= 284.000 
BEwidth= -9.898  
Excitation= 1486.600
Time_p_channel= 512.000 
Size= 139
288.949  6.21000000e+02 
288.877  5.96000000e+02 
288.806  5.67000000e+02 
288.734  6.00000000e+02 
288.662  5.98000000e+02 
288.591  5.71000000e+02 
288.519  6.30000000e+02 
288.447  5.56000000e+02 
288.375  5.93000000e+02 
288.304  6.27000000e+02 
288.232  6.21000000e+02 
288.160  6.14000000e+02 
288.088  6.17000000e+02 
288.017  6.17000000e+02 
287.945  6.99000000e+02 
287.873  6.68000000e+02 
287.802  6.73000000e+02 
287.730  6.71000000e+02 
287.658  6.59000000e+02 
287.586  6.76000000e+02 
287.515  6.60000000e+02 
287.443  7.30000000e+02 
287.371  7.15000000e+02 
287.299  7.06000000e+02 
287.228  7.44000000e+02 
287.156  7.43000000e+02 
287.084  7.51000000e+02 
287.013  7.76000000e+02 
286.941  8.47000000e+02 
286.869  8.30000000e+02 
286.797  8.09000000e+02 
286.726  8.74000000e+02 
286.654  8.11000000e+02 
286.582  8.49000000e+02 
286.510  9.20000000e+02 
286.439  9.29000000e+02 
286.367  9.46000000e+02 
286.295  9.32000000e+02 
286.224  9.72000000e+02 
286.152  1.00400000e+03 
286.080  1.00300000e+03 
286.008  1.04900000e+03 
285.937  1.10200000e+03 
285.865  1.07000000e+03 
285.793  1.17900000e+03 
285.721  1.13100000e+03 
285.650  1.12000000e+03 
285.578  1.11100000e+03 
285.506  1.15700000e+03 
285.435  1.11700000e+03 
285.363  1.07100000e+03 
285.291  1.09900000e+03 
285.219  1.04300000e+03 
285.148  1.07800000e+03 
285.076  1.07200000e+03 
285.004  1.02400000e+03 
284.932  1.01500000e+03 
284.861  9.48000000e+02 
284.789  8.42000000e+02 
284.717  8.54000000e+02 
284.646  7.99000000e+02 
284.574  8.36000000e+02 
284.502  7.95000000e+02 
284.430  7.28000000e+02 
284.359  7.05000000e+02 
284.287  6.68000000e+02 
284.215  6.49000000e+02 
284.143  6.11000000e+02 
284.072  6.77000000e+02 
284.000  6.35000000e+02 
283.928  6.57000000e+02 
283.857  5.65000000e+02 
283.785  6.36000000e+02 
283.713  5.61000000e+02 
283.641  6.47000000e+02 
283.570  5.70000000e+02 
283.498  5.78000000e+02 
283.426  5.49000000e+02 
283.354  5.60000000e+02 
283.283  6.00000000e+02 
283.211  5.79000000e+02 
283.139  5.35000000e+02 
283.068  5.60000000e+02 
282.996  5.26000000e+02 
282.924  5.95000000e+02 
282.852  5.76000000e+02 
282.781  5.37000000e+02 
282.709  5.61000000e+02 
282.637  5.71000000e+02 
282.565  5.90000000e+02 
282.494  5.90000000e+02 
282.422  5.60000000e+02 
282.350  5.01000000e+02 
282.279  5.56000000e+02 
282.207  5.68000000e+02 
282.135  5.51000000e+02 
282.063  5.87000000e+02 
281.992  5.62000000e+02 
281.920  5.19000000e+02 
281.848  5.38000000e+02 
281.776  5.10000000e+02 
281.705  5.32000000e+02 
281.633  5.92000000e+02 
281.561  5.65000000e+02 
281.490  5.32000000e+02 
281.418  5.48000000e+02 
281.346  5.60000000e+02 
281.274  5.57000000e+02 
281.203  5.35000000e+02 
281.131  5.35000000e+02 
281.059  5.55000000e+02 
280.987  5.43000000e+02 
280.916  5.21000000e+02 
280.844  5.55000000e+02 
280.772  5.41000000e+02 
280.701  5.45000000e+02 
280.629  5.24000000e+02 
280.557  5.32000000e+02 
280.485  5.48000000e+02 
280.414  5.36000000e+02 
280.342  5.16000000e+02 
280.270  6.06000000e+02 
280.198  5.89000000e+02 
280.127  5.50000000e+02 
280.055  5.48000000e+02 
279.983  5.64000000e+02 
279.912  5.81000000e+02 
279.840  5.41000000e+02 
279.768  5.71000000e+02 
279.696  5.79000000e+02 
279.625  5.46000000e+02 
279.553  5.25000000e+02 
279.481  5.36000000e+02 
279.409  5.33000000e+02 
279.338  4.95000000e+02 
279.266  5.91000000e+02 
279.194  5.00000000e+02 
279.123  5.32000000e+02 
279.051  5.73000000e+02 
[ Region 7 Curve ]
BEcenter= 284.000 
BEwidth= -9.898  
Excitation= 1486.600
Time_p_channel= 512.000 
Size= 139
288.949  5.40000000e+02 
288.877  5.27000000e+02 
288.806  5.24000000e+02 
288.734  5.45000000e+02 
288.662  5.31000000e+02 
288.591  5.22000000e+02 
288.519  5.39000000e+02 
288.447  5.37000000e+02 
288.375  5.72000000e+02 
288.304  5.63000000e+02 
288.232  5.29000000e+02 
288.160  5.64000000e+02 
288.088  5.53000000e+02 
288.017  5.80000000e+02 
287.945  5.75000000e+02 
287.873  5.47000000e+02 
287.802  6.04000000e+02 
287.730  5.94000000e+02 
287.658  6.14000000e+02 
287.586  6.36000000e+02 
287.515  6.06000000e+02 
287.443  6.02000000e+02 
287.371  6.59000000e+02 
287.299  6.68000000e+02 
287.228  7.23000000e+02 
287.156  6.38000000e+02 
287.084  6.82000000e+02 
287.013  6.88000000e+02 
286.941  6.51000000e+02 
286.869  6.89000000e+02 
286.797  7.87000000e+02 
286.726  7.47000000e+02 
286.654  7.68000000e+02 
286.582  8.10000000e+02 
286.510  7.89000000e+02 
286.439  7.93000000e+02 
286.367  8.34000000e+02 
286.295  8.44000000e+02 
286.224  8.47000000e+02 
286.152  9.07000000e+02 
286.080  9.71000000e+02 
286.008  9.44000000e+02 
285.937  9.24000000e+02 
285.865  8.66000000e+02 
285.793  1.01000000e+03 
285.721  9.16000000e+02 
285.650  9.31000000e+02 
285.578  9.58000000e+02 
285.506  9.75000000e+02 
285.435  9.24000000e+02 
285.363  9.95000000e+02 
285.291  9.20000000e+02 
285.219  9.65000000e+02 
285.148  8.41000000e+02 
285.076  9.13000000e+02 
285.004  8.91000000e+02 
284.932  8.24000000e+02 
284.861  7.49000000e+02 
284.789  7.79000000e+02 
284.717  7.38000000e+02 
284.646  7.49000000e+02 
284.574  7.06000000e+02 
284.502  6.55000000e+02 
284.430  6.50000000e+02 
284.359  6.21000000e+02 
284.287  6.28000000e+02 
284.215  6.23000000e+02 
284.143  5.67000000e+02 
284.072  5.60000000e+02 
284.000  6.04000000e+02 
283.928  5.13000000e+02 
283.857  5.38000000e+02 
283.785  5.33000000e+02 
283.713  5.36000000e+02 
283.641  5.17000000e+02 
283.570  4.67000000e+02 
283.498  5.06000000e+02 
283.426  5.34000000e+02 
283.354  5.16000000e+02 
283.283  4.89000000e+02 
283.211  4.84000000e+02 
283.139  4.83000000e+02 
283.068  4.87000000e+02 
282.996  5.01000000e+02 
282.924  5.00000000e+02 
282.852  5.12000000e+02 
282.781  5.06000000e+02 
282.709  5.01000000e+02 
282.637  4.97000000e+02 
282.565  4.95000000e+02 
282.494  4.73000000e+02 
282.422  4.56000000e+02 
282.350  4.60000000e+02 
282.279  5.12000000e+02 
282.207  4.78000000e+02 
282.135  5.48000000e+02 
282.063  4.97000000e+02 
281.992  5.12000000e+02 
281.920  4.47000000e+02 
281.848  5.16000000e+02 
281.776  4.88000000e+02 
281.705  4.98000000e+02 
281.633  4.68000000e+02 
281.561  5.15000000e+02 
281.490  5.04000000e+02 
281.418  5.22000000e+02 
281.346  5.30000000e+02 
281.274  4.85000000e+02 
281.203  5.25000000e+02 
281.131  4.70000000e+02 
281.059  4.99000000e+02 
280.987  4.90000000e+02 
280.916  5.25000000e+02 
280.844  5.09000000e+02 
280.772  4.66000000e+02 
280.701  4.94000000e+02 
280.629  5.00000000e+02 
280.557  4.92000000e+02 
280.485  4.61000000e+02 
280.414  4.71000000e+02 
280.342  4.74000000e+02 
280.270  4.55000000e+02 
280.198  4.84000000e+02 
280.127  4.75000000e+02 
280.055  4.77000000e+02 
279.983  4.64000000e+02 
279.912  4.81000000e+02 
279.840  5.17000000e+02 
279.768  4.67000000e+02 
279.696  4.85000000e+02 
279.625  4.61000000e+02 
279.553  5.05000000e+02 
279.481  5.13000000e+02 
279.409  4.62000000e+02 
279.338  4.71000000e+02 
279.266  5.08000000e+02 
279.194  4.96000000e+02 
279.123  4.45000000e+02 
279.051  4.78000000e+02 
[ Region 8 Curve ]
BEcenter= 284.000 
BEwidth= -9.898  
Excitation= 1486.600
Time_p_channel= 512.000 
Size= 139
288.949  5.12000000e+02 
288.877  5.14000000e+02 
288.806  5.42000000e+02 
288.734  4.87000000e+02 
288.662  5.07000000e+02 
288.591  5.14000000e+02 
288.519  4.73000000e+02 
288.447  4.88000000e+02 
288.375  5.14000000e+02 
288.304  5.11000000e+02 
288.232  5.33000000e+02 
288.160  4.95000000e+02 
288.088  4.98000000e+02 
288.017  5.32000000e+02 
287.945  5.27000000e+02 
287.873  5.44000000e+02 
287.802  5.19000000e+02 
287.730  5.02000000e+02 
287.658  5.45000000e+02 
287.586  5.92000000e+02 
287.515  6.01000000e+02 
287.443  5.50000000e+02 
287.371  5.55000000e+02 
287.299  5.83000000e+02 
287.228  5.95000000e+02 
287.156  6.30000000e+02 
287.084  6.35000000e+02 
287.013  5.90000000e+02 
286.941  6.16000000e+02 
286.869  6.29000000e+02 
286.797  6.38000000e+02 
286.726  6.43000000e+02 
286.654  6.80000000e+02 
286.582  6.77000000e+02 
286.510  7.11000000e+02 
286.439  7.49000000e+02 
286.367  7.93000000e+02 
286.295  7.86000000e+02 
286.224  7.59000000e+02 
286.152  7.52000000e+02 
286.080  7.91000000e+02 
286.008  8.50000000e+02 
285.937  8.14000000e+02 
285.865  8.42000000e+02 
285.793  8.49000000e+02 
285.721  8.71000000e+02 
285.650  8.64000000e+02 
285.578  8.90000000e+02 
285.506  8.71000000e+02 
285.435  9.14000000e+02 
285.363  8.53000000e+02 
285.291  8.72000000e+02 
285.219  8.29000000e+02 
285.148  8.57000000e+02 
285.076  8.48000000e+02 
285.004  7.94000000e+02 
284.932  7.82000000e+02 
284.861  7.65000000e+02 
284.789  7.62000000e+02 
284.717  7.00000000e+02 
284.646  7.65000000e+02 
284.574  6.39000000e+02 
284.502  6.75000000e+02 
284.430  5.64000000e+02 
284.359  6.46000000e+02 
284.287  5.74000000e+02 
284.215  5.74000000e+02 
284.143  5.77000000e+02 
284.072  5.83000000e+02 
284.000  5.87000000e+02 
283.928  5.34000000e+02 
283.857  5.40000000e+02 
283.785  5.37000000e+02 
283.713  4.97000000e+02 
283.641  5.00000000e+02 
283.570  5.05000000e+02 
283.498  4.79000000e+02 
283.426  5.07000000e+02 
283.354  5.18000000e+02 
283.283  4.77000000e+02 
283.211  4.61000000e+02 
283.139  4.67000000e+02 
283.068  4.83000000e+02 
282.996  4.53000000e+02 
282.924  4.83000000e+02 
282.852  4.66000000e+02 
282.781  4.78000000e+02 
282.709  4.47000000e+02 
282.637  4.82000000e+02 
282.565  4.15000000e+02 
282.494  4.63000000e+02 
282.422  4.61000000e+02 
282.350  4.58000000e+02 
282.279  4.27000000e+02 
282.207  4.34000000e+02 
282.135  4.92000000e+02 
282.063  4.62000000e+02 
281.992  4.46000000e+02 
281.920  4.33000000e+02 
281.848  4.62000000e+02 
281.776  5.17000000e+02 
281.705  4.46000000e+02 
281.633  4.81000000e+02 
281.561  4.53000000e+02 
281.490  4.54000000e+02 
281.418  4.72000000e+02 
281.346  4.65000000e+02 
281.274  4.49000000e+02 
281.203  4.90000000e+02 
281.131  4.82000000e+02 
281.059  4.62000000e+02 
280.987  4.74000000e+02 
280.916  4.42000000e+02 
280.844  4.73000000e+02 
280.772  4.25000000e+02 
280.701  4.95000000e+02 
280.629  4.55000000e+02 
280.557  4.49000000e+02 
280.485  4.80000000e+02 
280.414  4.55000000e+02 
280.342  4.54000000e+02 
280.270  4.44000000e+02 
280.198  4.71000000e+02 
280.127  4.49000000e+02 
280.055  4.47000000e+02 
279.983  4.68000000e+02 
279.912  4.45000000e+02 
279.840  5.00000000e+02 
279.768  4.59000000e+02 
279.696  4.77000000e+02 
279.625  5.06000000e+02 
279.553  4.40000000e+02 
279.481  5.04000000e+02 
279.409  4.71000000e+02 
279.338  4.62000000e+02 
279.266  4.72000000e+02 
279.194  4.31000000e+02 
279.123  4.66000000e+02 
279.051  4.28000000e+02 
[ Region 9 Curve ]
BEcenter= 284.000 
BEwidth= -9.898  
Excitation= 1486.600
Time_p_channel= 512.000 
Size= 139
288.949  3.99000000e+02 
288.877  4.11000000e+02 
288.806  4.45000000e+02 
288.734  4.53000000e+02 
288.662  4.41000000e+02 
288.591  4.45000000e+02 
288.519  4.50000000e+02 
288.447  4.65000000e+02 
288.375  4.46000000e+02 
288.304  4.50000000e+02 
288.232  4.63000000e+02 
288.160  4.35000000e+02 
288.088  4.55000000e+02 
288.017  4.82000000e+02 
287.945  4.63000000e+02 
287.873  4.44000000e+02 
287.802  4.84000000e+02 
287.730  4.62000000e+02 
287.658  5.14000000e+02 
287.586  4.75000000e+02 
287.515  4.38000000e+02 
287.443  4.67000000e+02 
287.371  4.86000000e+02 
287.299  5.28000000e+02 
287.228  5.52000000e+02 
287.156  5.40000000e+02 
287.084  5.11000000e+02 
287.013  5.39000000e+02 
286.941  5.31000000e+02 
286.869  5.44000000e+02 
286.797  5.97000000e+02 
286.726  5.30000000e+02 
286.654  5.68000000e+02 
286.582  5.42000000e+02 
286.510  6.26000000e+02 
286.439  6.08000000e+02 
286.367  6.04000000e+02 
286.295  6.68000000e+02 
286.224  6.36000000e+02 
286.152  6.29000000e+02 
286.080  6.84000000e+02 
286.008  6.70000000e+02 
285.937  6.57000000e+02 
285.865  6.92000000e+02 
285.793  7.17000000e+02 
285.721  7.18000000e+02 
285.650  7.44000000e+02 
285.578  7.15000000e+02 
285.506  7.65000000e+02 
285.435  7.17000000e+02 
285.363  7.21000000e+02 
285.291  7.61000000e+02 
285.219  7.66000000e+02 
285.148  7.26000000e+02 
285.076  7.11000000e+02 
285.004  6.70000000e+02 
284.932  6.79000000e+02 
284.861  6.95000000e+02 
284.789  6.82000000e+02 
284.717  6.40000000e+02 
284.646  6.49000000e+02 
284.574  6.28000000e+02 
284.502  6.76000000e+02 
284.430  5.87000000e+02 
284.359  6.47000000e+02 
284.287  6.23000000e+02 
284.215  5.50000000e+02 
284.143  5.38000000e+02 
284.072  5.91000000e+02 
284.000  5.77000000e+02 
283.928  5.56000000e+02 
283.857  5.05000000e+02 
283.785  5.33000000e+02 
283.713  5.26000000e+02 
283.641  4.79000000e+02 
283.570  4.73000000e+02 
283.498  4.69000000e+02 
283.426  4.93000000e+02 
283.354  4.28000000e+02 
283.283  4.60000000e+02 
283.211  4.12000000e+02 
283.139  4.79000000e+02 
283.068  3.90000000e+02 
282.996  4.62000000e+02 
282.924  4.34000000e+02 
282.852  4.39000000e+02 
282.781  4.59000000e+02 
282.709  4.26000000e+02 
282.637  4.25000000e+02 
282.565  4.36000000e+02 
282.494  3.91000000e+02 
282.422  4.15000000e+02 
282.350  4.11000000e+02 
282.279  4.11000000e+02 
282.207  3.71000000e+02 
282.135  3.78000000e+02 
282.063  4.22000000e+02 
281.992  4.13000000e+02 
281.920  4.31000000e+02 
281.848  3.79000000e+02 
281.776  4.17000000e+02 
281.705  3.88000000e+02 
281.633  4.08000000e+02 
281.561  3.71000000e+02 
281.490  4.13000000e+02 
281.418  4.12000000e+02 
281.346  3.98000000e+02 
281.274  4.08000000e+02 
281.203  3.92000000e+02 
281.131  3.98000000e+02 
281.059  4.23000000e+02 
280.987  4.12000000e+02 
280.916  4.05000000e+02 
280.844  3.99000000e+02 
280.772  3.88000000e+02 
280.701  4.01000000e+02 
280.629  4.39000000e+02 
280.557  3.90000000e+02 
280.485  4.39000000e+02 
280.414  3.94000000e+02 
280.342  4.19000000e+02 
280.270  3.73000000e+02 
280.198  4.06000000e+02 
280.127  4.11000000e+02 
280.055  3.83000000e+02 
279.983  4.23000000e+02 
279.912  3.71000000e+02 
279.840  3.80000000e+02 
279.768  3.84000000e+02 
279.696  4.50000000e+02 
279.625  4.22000000e+02 
279.553  4.06000000e+02 
279.481  4.12000000e+02 
279.409  4.28000000e+02 
279.338  3.86000000e+02 
279.266  4.29000000e+02 
279.194  4.07000000e+02 
279.123  4.01000000e+02 
279.051  4.19000000e+02 
