[ Experiment Parameters ]
Experiment Description= <none> 
Number_of_Regions_in_Experiment= 2 

Original_File_name= c:\alexesca\data\97073101.xps 
Instrument= ESCA-West
Date= 07-30-1997
Time=  19:49:21

[ Region 1 Parameters ]
Region_Description = O for XPD                          
BEcenter(eV) = 532.000000
BEwidth(eV) = 14.000000
BEstep(eV) = 0.035938
Dwell_Time(sec) = 0.250000
N_o_scans = 1  
N_o_Channels = 390  
Excitation_Energy = -0.000000  
Scan_mode = 0  (DITHERED)

[ Region 2 Parameters ]
Region_Description = Mn for XPD                         
BEcenter(eV) = 643.000000
BEwidth(eV) = 12.000000
BEstep(eV) = 0.035938
Dwell_Time(sec) = 0.250000
N_o_scans = 1  
N_o_Channels = 334  
Excitation_Energy = -0.000000  
Scan_mode = 0  (DITHERED)

[ Region 1 Curve ]
BEcenter= 532.000 
BEwidth= -13.975 
Excitation= 1486.600
Time_p_channel= 64.000  
Size= 390
538.987  3.00000000e+00 
538.951  5.00000000e+00 
538.915  3.00000000e+00 
538.880  4.00000000e+00 
538.844  3.00000000e+00 
538.808  2.00000000e+00 
538.772  5.00000000e+00 
538.736  9.00000000e+00 
538.700  4.00000000e+00 
538.664  1.00000000e+00 
538.628  2.00000000e+00 
538.592  7.00000000e+00 
538.556  8.00000000e+00 
538.520  2.00000000e+00 
538.484  8.00000000e+00 
538.448  5.00000000e+00 
538.413  2.00000000e+00 
538.377  7.00000000e+00 
538.341  8.00000000e+00 
538.305  5.00000000e+00 
538.269  4.00000000e+00 
538.233  4.00000000e+00 
538.197  7.00000000e+00 
538.161  5.00000000e+00 
538.125  2.00000000e+00 
538.089  2.00000000e+00 
538.053  6.00000000e+00 
538.017  4.00000000e+00 
537.981  1.00000000e+00 
537.945  2.00000000e+00 
537.910  7.00000000e+00 
537.874  4.00000000e+00 
537.838  6.00000000e+00 
537.802  6.00000000e+00 
537.766  8.00000000e+00 
537.730  4.00000000e+00 
537.694  3.00000000e+00 
537.658  8.00000000e+00 
537.622  5.00000000e+00 
537.586  3.00000000e+00 
537.550  1.00000000e+00 
537.514  7.00000000e+00 
537.478  8.00000000e+00 
537.443  5.00000000e+00 
537.407  5.00000000e+00 
537.371  3.00000000e+00 
537.335  7.00000000e+00 
537.299  4.00000000e+00 
537.263  5.00000000e+00 
537.227  3.00000000e+00 
537.191  3.00000000e+00 
537.155  4.00000000e+00 
537.119  4.00000000e+00 
537.083  5.00000000e+00 
537.047  4.00000000e+00 
537.011  5.00000000e+00 
536.976  7.00000000e+00 
536.940  4.00000000e+00 
536.904  3.00000000e+00 
536.868  9.00000000e+00 
536.832  1.00000000e+00 
536.796  4.00000000e+00 
536.760  2.00000000e+00 
536.724  3.00000000e+00 
536.688  5.00000000e+00 
536.652  5.00000000e+00 
536.616  2.00000000e+00 
536.580  3.00000000e+00 
536.544  6.00000000e+00 
536.509  2.00000000e+00 
536.473  3.00000000e+00 
536.437  4.00000000e+00 
536.401  4.00000000e+00 
536.365  3.00000000e+00 
536.329  3.00000000e+00 
536.293  3.00000000e+00 
536.257  9.00000000e+00 
536.221  2.00000000e+00 
536.185  2.00000000e+00 
536.149  5.00000000e+00 
536.113  2.00000000e+00 
536.077  3.00000000e+00 
536.042  0.00000000e+00 
536.006  5.00000000e+00 
535.970  6.00000000e+00 
535.934  5.00000000e+00 
535.898  1.00000000e+00 
535.862  8.00000000e+00 
535.826  7.00000000e+00 
535.790  1.00000000e+00 
535.754  4.00000000e+00 
535.718  4.00000000e+00 
535.682  4.00000000e+00 
535.646  5.00000000e+00 
535.610  6.00000000e+00 
535.574  8.00000000e+00 
535.539  6.00000000e+00 
535.503  5.00000000e+00 
535.467  4.00000000e+00 
535.431  7.00000000e+00 
535.395  3.00000000e+00 
535.359  1.00000000e+00 
535.323  6.00000000e+00 
535.287  6.00000000e+00 
535.251  8.00000000e+00 
535.215  4.00000000e+00 
535.179  3.00000000e+00 
535.143  0.00000000e+00 
535.107  9.00000000e+00 
535.072  5.00000000e+00 
535.036  9.00000000e+00 
535.000  5.00000000e+00 
534.964  4.00000000e+00 
534.928  7.00000000e+00 
534.892  7.00000000e+00 
534.856  3.00000000e+00 
534.820  5.00000000e+00 
534.784  5.00000000e+00 
534.748  6.00000000e+00 
534.712  3.00000000e+00 
534.676  6.00000000e+00 
534.640  1.00000000e+01 
534.605  6.00000000e+00 
534.569  4.00000000e+00 
534.533  8.00000000e+00 
534.497  6.00000000e+00 
534.461  1.10000000e+01 
534.425  3.00000000e+00 
534.389  5.00000000e+00 
534.353  6.00000000e+00 
534.317  5.00000000e+00 
534.281  7.00000000e+00 
534.245  8.00000000e+00 
534.209  1.30000000e+01 
534.173  8.00000000e+00 
534.138  1.70000000e+01 
534.102  5.00000000e+00 
534.066  3.00000000e+00 
534.030  1.20000000e+01 
533.994  9.00000000e+00 
533.958  1.10000000e+01 
533.922  1.30000000e+01 
533.886  6.00000000e+00 
533.850  1.10000000e+01 
533.814  9.00000000e+00 
533.778  7.00000000e+00 
533.742  1.60000000e+01 
533.706  1.50000000e+01 
533.670  8.00000000e+00 
533.635  1.90000000e+01 
533.599  1.20000000e+01 
533.563  9.00000000e+00 
533.527  1.30000000e+01 
533.491  1.20000000e+01 
533.455  1.10000000e+01 
533.419  1.30000000e+01 
533.383  1.20000000e+01 
533.347  1.60000000e+01 
533.311  1.20000000e+01 
533.275  9.00000000e+00 
533.239  1.50000000e+01 
533.203  1.10000000e+01 
533.168  1.70000000e+01 
533.132  1.40000000e+01 
533.096  8.00000000e+00 
533.060  1.20000000e+01 
533.024  1.70000000e+01 
532.988  1.50000000e+01 
532.952  1.60000000e+01 
532.916  1.30000000e+01 
532.880  1.30000000e+01 
532.844  1.50000000e+01 
532.808  7.00000000e+00 
532.772  1.00000000e+01 
532.736  1.00000000e+01 
532.701  1.90000000e+01 
532.665  6.00000000e+00 
532.629  1.20000000e+01 
532.593  9.00000000e+00 
532.557  1.50000000e+01 
532.521  1.40000000e+01 
532.485  1.10000000e+01 
532.449  1.80000000e+01 
532.413  6.00000000e+00 
532.377  1.70000000e+01 
532.341  8.00000000e+00 
532.305  1.50000000e+01 
532.269  7.00000000e+00 
532.234  1.00000000e+01 
532.198  4.00000000e+00 
532.162  1.10000000e+01 
532.126  7.00000000e+00 
532.090  6.00000000e+00 
532.054  9.00000000e+00 
532.018  7.00000000e+00 
531.982  1.30000000e+01 
531.946  1.00000000e+01 
531.910  7.00000000e+00 
531.874  8.00000000e+00 
531.838  9.00000000e+00 
531.802  5.00000000e+00 
531.766  9.00000000e+00 
531.731  6.00000000e+00 
531.695  5.00000000e+00 
531.659  1.00000000e+01 
531.623  1.20000000e+01 
531.587  5.00000000e+00 
531.551  7.00000000e+00 
531.515  4.00000000e+00 
531.479  3.00000000e+00 
531.443  4.00000000e+00 
531.407  2.00000000e+00 
531.371  1.00000000e+00 
531.335  6.00000000e+00 
531.299  8.00000000e+00 
531.264  6.00000000e+00 
531.228  2.00000000e+00 
531.192  3.00000000e+00 
531.156  6.00000000e+00 
531.120  3.00000000e+00 
531.084  6.00000000e+00 
531.048  4.00000000e+00 
531.012  2.00000000e+00 
530.976  9.00000000e+00 
530.940  7.00000000e+00 
530.904  2.00000000e+00 
530.868  4.00000000e+00 
530.832  2.00000000e+00 
530.797  1.00000000e+00 
530.761  4.00000000e+00 
530.725  6.00000000e+00 
530.689  5.00000000e+00 
530.653  2.00000000e+00 
530.617  6.00000000e+00 
530.581  4.00000000e+00 
530.545  3.00000000e+00 
530.509  2.00000000e+00 
530.473  5.00000000e+00 
530.437  8.00000000e+00 
530.401  9.00000000e+00 
530.365  6.00000000e+00 
530.330  3.00000000e+00 
530.294  6.00000000e+00 
530.258  7.00000000e+00 
530.222  2.00000000e+00 
530.186  6.00000000e+00 
530.150  3.00000000e+00 
530.114  6.00000000e+00 
530.078  6.00000000e+00 
530.042  5.00000000e+00 
530.006  3.00000000e+00 
529.970  6.00000000e+00 
529.934  3.00000000e+00 
529.898  1.00000000e+00 
529.862  4.00000000e+00 
529.827  4.00000000e+00 
529.791  8.00000000e+00 
529.755  5.00000000e+00 
529.719  5.00000000e+00 
529.683  2.00000000e+00 
529.647  3.00000000e+00 
529.611  5.00000000e+00 
529.575  2.00000000e+00 
529.539  6.00000000e+00 
529.503  4.00000000e+00 
529.467  6.00000000e+00 
529.431  2.00000000e+00 
529.395  2.00000000e+00 
529.360  2.00000000e+00 
529.324  3.00000000e+00 
529.288  1.00000000e+00 
529.252  3.00000000e+00 
529.216  3.00000000e+00 
529.180  3.00000000e+00 
529.144  6.00000000e+00 
529.108  1.00000000e+00 
529.072  4.00000000e+00 
529.036  5.00000000e+00 
529.000  2.00000000e+00 
528.964  1.00000000e+01 
528.928  8.00000000e+00 
528.893  5.00000000e+00 
528.857  3.00000000e+00 
528.821  6.00000000e+00 
528.785  3.00000000e+00 
528.749  3.00000000e+00 
528.713  2.00000000e+00 
528.677  5.00000000e+00 
528.641  6.00000000e+00 
528.605  3.00000000e+00 
528.569  5.00000000e+00 
528.533  4.00000000e+00 
528.497  3.00000000e+00 
528.461  3.00000000e+00 
528.426  4.00000000e+00 
528.390  3.00000000e+00 
528.354  4.00000000e+00 
528.318  3.00000000e+00 
528.282  2.00000000e+00 
528.246  6.00000000e+00 
528.210  3.00000000e+00 
528.174  3.00000000e+00 
528.138  4.00000000e+00 
528.102  4.00000000e+00 
528.066  6.00000000e+00 
528.030  3.00000000e+00 
527.994  2.00000000e+00 
527.958  3.00000000e+00 
527.923  5.00000000e+00 
527.887  2.00000000e+00 
527.851  7.00000000e+00 
527.815  2.00000000e+00 
527.779  3.00000000e+00 
527.743  9.00000000e+00 
527.707  3.00000000e+00 
527.671  3.00000000e+00 
527.635  4.00000000e+00 
527.599  1.00000000e+00 
527.563  7.00000000e+00 
527.527  8.00000000e+00 
527.491  2.00000000e+00 
527.456  4.00000000e+00 
527.420  3.00000000e+00 
527.384  4.00000000e+00 
527.348  2.00000000e+00 
527.312  4.00000000e+00 
527.276  7.00000000e+00 
527.240  3.00000000e+00 
527.204  1.00000000e+00 
527.168  4.00000000e+00 
527.132  2.00000000e+00 
527.096  3.00000000e+00 
527.060  2.00000000e+00 
527.024  1.00000000e+00 
526.989  4.00000000e+00 
526.953  5.00000000e+00 
526.917  5.00000000e+00 
526.881  3.00000000e+00 
526.845  4.00000000e+00 
526.809  2.00000000e+00 
526.773  5.00000000e+00 
526.737  3.00000000e+00 
526.701  3.00000000e+00 
526.665  3.00000000e+00 
526.629  6.00000000e+00 
526.593  4.00000000e+00 
526.557  4.00000000e+00 
526.522  4.00000000e+00 
526.486  2.00000000e+00 
526.450  3.00000000e+00 
526.414  6.00000000e+00 
526.378  4.00000000e+00 
526.342  2.00000000e+00 
526.306  4.00000000e+00 
526.270  3.00000000e+00 
526.234  4.00000000e+00 
526.198  3.00000000e+00 
526.162  4.00000000e+00 
526.126  3.00000000e+00 
526.090  4.00000000e+00 
526.055  4.00000000e+00 
526.019  5.00000000e+00 
525.983  1.00000000e+00 
525.947  2.00000000e+00 
525.911  5.00000000e+00 
525.875  2.00000000e+00 
525.839  4.00000000e+00 
525.803  4.00000000e+00 
525.767  4.00000000e+00 
525.731  2.00000000e+00 
525.695  4.00000000e+00 
525.659  3.00000000e+00 
525.623  3.00000000e+00 
525.587  2.00000000e+00 
525.552  1.00000000e+01 
525.516  4.00000000e+00 
525.480  3.00000000e+00 
525.444  3.00000000e+00 
525.408  8.00000000e+00 
525.372  7.00000000e+00 
525.336  4.00000000e+00 
525.300  3.00000000e+00 
525.264  1.00000000e+00 
525.228  2.00000000e+00 
525.192  1.00000000e+00 
525.156  5.00000000e+00 
525.120  3.00000000e+00 
525.085  8.00000000e+00 
525.049  5.00000000e+00 
525.013  3.00000000e+00 
[ Region 2 Curve ]
BEcenter= 643.000 
BEwidth= -11.959 
Excitation= 1486.600
Time_p_channel= 64.000  
Size= 334
648.979  7.00000000e+00 
648.944  1.10000000e+01 
648.908  9.00000000e+00 
648.872  1.10000000e+01 
648.836  8.00000000e+00 
648.800  1.10000000e+01 
648.764  1.20000000e+01 
648.728  4.00000000e+00 
648.692  1.20000000e+01 
648.656  4.00000000e+00 
648.620  1.10000000e+01 
648.584  1.10000000e+01 
648.549  1.00000000e+01 
648.513  8.00000000e+00 
648.477  6.00000000e+00 
648.441  8.00000000e+00 
648.405  8.00000000e+00 
648.369  1.10000000e+01 
648.333  1.30000000e+01 
648.297  4.00000000e+00 
648.261  4.00000000e+00 
648.225  7.00000000e+00 
648.189  8.00000000e+00 
648.153  5.00000000e+00 
648.118  6.00000000e+00 
648.082  1.10000000e+01 
648.046  1.10000000e+01 
648.010  8.00000000e+00 
647.974  7.00000000e+00 
647.938  1.10000000e+01 
647.902  7.00000000e+00 
647.866  1.20000000e+01 
647.830  8.00000000e+00 
647.794  1.10000000e+01 
647.758  1.00000000e+01 
647.723  3.00000000e+00 
647.687  1.10000000e+01 
647.651  5.00000000e+00 
647.615  4.00000000e+00 
647.579  6.00000000e+00 
647.543  8.00000000e+00 
647.507  8.00000000e+00 
647.471  1.20000000e+01 
647.435  3.00000000e+00 
647.399  1.10000000e+01 
647.363  1.00000000e+01 
647.328  6.00000000e+00 
647.292  9.00000000e+00 
647.256  1.10000000e+01 
647.220  3.00000000e+00 
647.184  2.10000000e+01 
647.148  9.00000000e+00 
647.112  1.00000000e+01 
647.076  4.00000000e+00 
647.040  8.00000000e+00 
647.004  1.00000000e+01 
646.968  9.00000000e+00 
646.932  1.10000000e+01 
646.897  1.30000000e+01 
646.861  6.00000000e+00 
646.825  9.00000000e+00 
646.789  7.00000000e+00 
646.753  1.50000000e+01 
646.717  3.00000000e+00 
646.681  9.00000000e+00 
646.645  4.00000000e+00 
646.609  1.20000000e+01 
646.573  7.00000000e+00 
646.537  7.00000000e+00 
646.502  1.10000000e+01 
646.466  8.00000000e+00 
646.430  5.00000000e+00 
646.394  6.00000000e+00 
646.358  5.00000000e+00 
646.322  7.00000000e+00 
646.286  1.30000000e+01 
646.250  5.00000000e+00 
646.214  7.00000000e+00 
646.178  1.30000000e+01 
646.142  7.00000000e+00 
646.106  6.00000000e+00 
646.071  4.00000000e+00 
646.035  7.00000000e+00 
645.999  1.00000000e+01 
645.963  5.00000000e+00 
645.927  5.00000000e+00 
645.891  1.00000000e+01 
645.855  8.00000000e+00 
645.819  6.00000000e+00 
645.783  6.00000000e+00 
645.747  4.00000000e+00 
645.711  4.00000000e+00 
645.676  1.00000000e+01 
645.640  6.00000000e+00 
645.604  7.00000000e+00 
645.568  9.00000000e+00 
645.532  4.00000000e+00 
645.496  1.00000000e+01 
645.460  9.00000000e+00 
645.424  1.40000000e+01 
645.388  5.00000000e+00 
645.352  9.00000000e+00 
645.316  9.00000000e+00 
645.280  4.00000000e+00 
645.245  1.40000000e+01 
645.209  6.00000000e+00 
645.173  6.00000000e+00 
645.137  6.00000000e+00 
645.101  7.00000000e+00 
645.065  6.00000000e+00 
645.029  1.10000000e+01 
644.993  9.00000000e+00 
644.957  1.10000000e+01 
644.921  9.00000000e+00 
644.885  8.00000000e+00 
644.850  5.00000000e+00 
644.814  9.00000000e+00 
644.778  4.00000000e+00 
644.742  8.00000000e+00 
644.706  6.00000000e+00 
644.670  9.00000000e+00 
644.634  1.10000000e+01 
644.598  8.00000000e+00 
644.562  1.00000000e+01 
644.526  3.00000000e+00 
644.490  5.00000000e+00 
644.454  1.00000000e+01 
644.419  9.00000000e+00 
644.383  8.00000000e+00 
644.347  8.00000000e+00 
644.311  9.00000000e+00 
644.275  8.00000000e+00 
644.239  8.00000000e+00 
644.203  7.00000000e+00 
644.167  9.00000000e+00 
644.131  7.00000000e+00 
644.095  1.00000000e+01 
644.059  1.50000000e+01 
644.024  3.00000000e+00 
643.988  9.00000000e+00 
643.952  7.00000000e+00 
643.916  4.00000000e+00 
643.880  5.00000000e+00 
643.844  5.00000000e+00 
643.808  8.00000000e+00 
643.772  1.10000000e+01 
643.736  6.00000000e+00 
643.700  9.00000000e+00 
643.664  7.00000000e+00 
643.628  6.00000000e+00 
643.593  6.00000000e+00 
643.557  4.00000000e+00 
643.521  7.00000000e+00 
643.485  1.00000000e+01 
643.449  5.00000000e+00 
643.413  1.30000000e+01 
643.377  7.00000000e+00 
643.341  1.10000000e+01 
643.305  1.00000000e+01 
643.269  6.00000000e+00 
643.233  8.00000000e+00 
643.198  1.30000000e+01 
643.162  1.10000000e+01 
643.126  5.00000000e+00 
643.090  7.00000000e+00 
643.054  6.00000000e+00 
643.018  7.00000000e+00 
642.982  9.00000000e+00 
642.946  8.00000000e+00 
642.910  8.00000000e+00 
642.874  1.10000000e+01 
642.838  1.10000000e+01 
642.802  9.00000000e+00 
642.767  6.00000000e+00 
642.731  8.00000000e+00 
642.695  1.60000000e+01 
642.659  9.00000000e+00 
642.623  6.00000000e+00 
642.587  5.00000000e+00 
642.551  7.00000000e+00 
642.515  7.00000000e+00 
642.479  7.00000000e+00 
642.443  5.00000000e+00 
642.407  7.00000000e+00 
642.372  1.50000000e+01 
642.336  7.00000000e+00 
642.300  7.00000000e+00 
642.264  1.10000000e+01 
642.228  1.20000000e+01 
642.192  7.00000000e+00 
642.156  7.00000000e+00 
642.120  4.00000000e+00 
642.084  7.00000000e+00 
642.048  3.00000000e+00 
642.012  7.00000000e+00 
641.976  2.00000000e+00 
641.941  1.50000000e+01 
641.905  1.00000000e+01 
641.869  1.20000000e+01 
641.833  8.00000000e+00 
641.797  5.00000000e+00 
641.761  6.00000000e+00 
641.725  8.00000000e+00 
641.689  9.00000000e+00 
641.653  1.10000000e+01 
641.617  7.00000000e+00 
641.581  1.00000000e+01 
641.546  8.00000000e+00 
641.510  6.00000000e+00 
641.474  9.00000000e+00 
641.438  1.10000000e+01 
641.402  6.00000000e+00 
641.366  5.00000000e+00 
641.330  1.10000000e+01 
641.294  1.00000000e+01 
641.258  1.10000000e+01 
641.222  5.00000000e+00 
641.186  3.00000000e+00 
641.150  1.30000000e+01 
641.115  1.00000000e+01 
641.079  5.00000000e+00 
641.043  6.00000000e+00 
641.007  9.00000000e+00 
640.971  7.00000000e+00 
640.935  7.00000000e+00 
640.899  8.00000000e+00 
640.863  7.00000000e+00 
640.827  6.00000000e+00 
640.791  1.00000000e+01 
640.755  8.00000000e+00 
640.720  1.00000000e+01 
640.684  4.00000000e+00 
640.648  6.00000000e+00 
640.612  4.00000000e+00 
640.576  7.00000000e+00 
640.540  4.00000000e+00 
640.504  1.10000000e+01 
640.468  7.00000000e+00 
640.432  8.00000000e+00 
640.396  7.00000000e+00 
640.360  8.00000000e+00 
640.324  9.00000000e+00 
640.289  5.00000000e+00 
640.253  9.00000000e+00 
640.217  5.00000000e+00 
640.181  2.00000000e+00 
640.145  4.00000000e+00 
640.109  7.00000000e+00 
640.073  9.00000000e+00 
640.037  1.20000000e+01 
640.001  7.00000000e+00 
639.965  8.00000000e+00 
639.929  2.00000000e+00 
639.894  9.00000000e+00 
639.858  9.00000000e+00 
639.822  7.00000000e+00 
639.786  5.00000000e+00 
639.750  7.00000000e+00 
639.714  4.00000000e+00 
639.678  1.40000000e+01 
639.642  1.00000000e+01 
639.606  5.00000000e+00 
639.570  8.00000000e+00 
639.534  1.00000000e+01 
639.498  8.00000000e+00 
639.463  4.00000000e+00 
639.427  7.00000000e+00 
639.391  1.30000000e+01 
639.355  4.00000000e+00 
639.319  9.00000000e+00 
639.283  4.00000000e+00 
639.247  6.00000000e+00 
639.211  5.00000000e+00 
639.175  9.00000000e+00 
639.139  3.00000000e+00 
639.103  5.00000000e+00 
639.068  1.30000000e+01 
639.032  4.00000000e+00 
638.996  5.00000000e+00 
638.960  6.00000000e+00 
638.924  1.00000000e+01 
638.888  1.00000000e+01 
638.852  1.20000000e+01 
638.816  3.00000000e+00 
638.780  5.00000000e+00 
638.744  4.00000000e+00 
638.708  9.00000000e+00 
638.672  1.00000000e+01 
638.637  1.70000000e+01 
638.601  1.40000000e+01 
638.565  1.20000000e+01 
638.529  9.00000000e+00 
638.493  1.40000000e+01 
638.457  9.00000000e+00 
638.421  1.30000000e+01 
638.385  1.10000000e+01 
638.349  5.00000000e+00 
638.313  5.00000000e+00 
638.277  6.00000000e+00 
638.242  5.00000000e+00 
638.206  8.00000000e+00 
638.170  7.00000000e+00 
638.134  7.00000000e+00 
638.098  1.20000000e+01 
638.062  1.00000000e+01 
638.026  9.00000000e+00 
637.990  8.00000000e+00 
637.954  1.00000000e+01 
637.918  7.00000000e+00 
637.882  5.00000000e+00 
637.847  1.00000000e+01 
637.811  5.00000000e+00 
637.775  7.00000000e+00 
637.739  8.00000000e+00 
637.703  1.00000000e+01 
637.667  3.00000000e+00 
637.631  4.00000000e+00 
637.595  9.00000000e+00 
637.559  1.30000000e+01 
637.523  1.00000000e+01 
637.487  4.00000000e+00 
637.451  8.00000000e+00 
637.416  1.10000000e+01 
637.380  5.00000000e+00 
637.344  7.00000000e+00 
637.308  1.00000000e+01 
637.272  6.00000000e+00 
637.236  5.00000000e+00 
637.200  5.00000000e+00 
637.164  9.00000000e+00 
637.128  1.20000000e+01 
637.092  9.00000000e+00 
637.056  4.00000000e+00 
637.021  1.10000000e+01 
