[ Experiment Parameters ]
Experiment Description= au4f. mom=7.0, to=-40.-30...40 
Number_of_Regions_in_Experiment= 7 

Original_File_name= c:\alexesca\data\97071603.xps 
Instrument= ESCA-West
Date= 07-16-1997
Time=  16:59:57

[ Region 1 Parameters ]
Region_Description = au 4f dithered                     
BEcenter(eV) = 85.000000
BEwidth(eV) = 8.000000
BEstep(eV) = 0.107813
Dwell_Time(sec) = 0.500000
N_o_scans = 2  
N_o_Channels = 74  
Excitation_Energy = -0.000000  
Scan_mode = 0  (DITHERED)

[ Region 2 Parameters ]
Region_Description = au 4f dithered                     
BEcenter(eV) = 85.000000
BEwidth(eV) = 8.000000
BEstep(eV) = 0.107813
Dwell_Time(sec) = 0.500000
N_o_scans = 2  
N_o_Channels = 74  
Excitation_Energy = -0.000000  
Scan_mode = 0  (DITHERED)

[ Region 3 Parameters ]
Region_Description = au 4f dithered                     
BEcenter(eV) = 85.000000
BEwidth(eV) = 8.000000
BEstep(eV) = 0.107813
Dwell_Time(sec) = 0.500000
N_o_scans = 2  
N_o_Channels = 74  
Excitation_Energy = -0.000000  
Scan_mode = 0  (DITHERED)

[ Region 4 Parameters ]
Region_Description = au 4f dithered                     
BEcenter(eV) = 85.000000
BEwidth(eV) = 8.000000
BEstep(eV) = 0.107813
Dwell_Time(sec) = 0.500000
N_o_scans = 2  
N_o_Channels = 74  
Excitation_Energy = -0.000000  
Scan_mode = 0  (DITHERED)

[ Region 5 Parameters ]
Region_Description = au 4f dithered                     
BEcenter(eV) = 85.000000
BEwidth(eV) = 8.000000
BEstep(eV) = 0.107813
Dwell_Time(sec) = 0.500000
N_o_scans = 2  
N_o_Channels = 74  
Excitation_Energy = -0.000000  
Scan_mode = 0  (DITHERED)

[ Region 6 Parameters ]
Region_Description = au 4f dithered                     
BEcenter(eV) = 85.000000
BEwidth(eV) = 8.000000
BEstep(eV) = 0.107813
Dwell_Time(sec) = 0.500000
N_o_scans = 2  
N_o_Channels = 74  
Excitation_Energy = -0.000000  
Scan_mode = 0  (DITHERED)

[ Region 7 Parameters ]
Region_Description = au 4f dithered                     
BEcenter(eV) = 85.000000
BEwidth(eV) = 8.000000
BEstep(eV) = 0.107813
Dwell_Time(sec) = 0.500000
N_o_scans = 2  
N_o_Channels = 74  
Excitation_Energy = -0.000000  
Scan_mode = 0  (DITHERED)

[ Region 1 Curve ]
BEcenter= 85.000  
BEwidth= -7.838  
Excitation= 1486.600
Time_p_channel= 768.000 
Size= 74
88.919   1.76000000e+02 
88.812   1.97000000e+02 
88.704   1.84000000e+02 
88.597   1.89000000e+02 
88.489   2.12000000e+02 
88.382   2.13000000e+02 
88.275   2.38000000e+02 
88.167   3.07000000e+02 
88.060   3.41000000e+02 
87.953   3.57000000e+02 
87.845   4.70000000e+02 
87.738   5.06000000e+02 
87.631   5.89000000e+02 
87.523   6.53000000e+02 
87.416   6.62000000e+02 
87.308   6.15000000e+02 
87.201   5.72000000e+02 
87.094   4.82000000e+02 
86.986   3.78000000e+02 
86.879   2.95000000e+02 
86.772   2.48000000e+02 
86.664   1.92000000e+02 
86.557   1.88000000e+02 
86.449   1.77000000e+02 
86.342   1.61000000e+02 
86.235   1.72000000e+02 
86.127   1.34000000e+02 
86.020   1.26000000e+02 
85.913   1.49000000e+02 
85.805   1.56000000e+02 
85.698   1.67000000e+02 
85.591   1.24000000e+02 
85.483   1.64000000e+02 
85.376   1.66000000e+02 
85.268   2.04000000e+02 
85.161   2.05000000e+02 
85.054   2.43000000e+02 
84.946   2.45000000e+02 
84.839   2.63000000e+02 
84.732   3.34000000e+02 
84.624   3.37000000e+02 
84.517   3.67000000e+02 
84.409   4.27000000e+02 
84.302   4.95000000e+02 
84.195   5.55000000e+02 
84.087   6.34000000e+02 
83.980   6.56000000e+02 
83.873   6.92000000e+02 
83.765   7.85000000e+02 
83.658   6.48000000e+02 
83.551   6.06000000e+02 
83.443   4.84000000e+02 
83.336   3.65000000e+02 
83.228   2.84000000e+02 
83.121   1.90000000e+02 
83.014   1.46000000e+02 
82.906   1.39000000e+02 
82.799   1.20000000e+02 
82.692   9.10000000e+01 
82.584   7.40000000e+01 
82.477   6.90000000e+01 
82.369   8.90000000e+01 
82.262   7.70000000e+01 
82.155   7.20000000e+01 
82.047   7.70000000e+01 
81.940   6.80000000e+01 
81.833   6.80000000e+01 
81.725   6.50000000e+01 
81.618   7.50000000e+01 
81.511   6.00000000e+01 
81.403   5.30000000e+01 
81.296   5.70000000e+01 
81.188   5.90000000e+01 
81.081   7.70000000e+01 
[ Region 2 Curve ]
BEcenter= 85.000  
BEwidth= -7.838  
Excitation= 1486.600
Time_p_channel= 768.000 
Size= 74
88.919   3.80000000e+02 
88.812   3.58000000e+02 
88.704   4.12000000e+02 
88.597   4.49000000e+02 
88.489   4.52000000e+02 
88.382   5.57000000e+02 
88.275   5.70000000e+02 
88.167   6.76000000e+02 
88.060   8.19000000e+02 
87.953   1.00500000e+03 
87.845   1.13100000e+03 
87.738   1.28200000e+03 
87.631   1.39100000e+03 
87.523   1.44000000e+03 
87.416   1.33700000e+03 
87.308   1.23400000e+03 
87.201   1.07300000e+03 
87.094   8.43000000e+02 
86.986   6.47000000e+02 
86.879   4.77000000e+02 
86.772   4.51000000e+02 
86.664   3.74000000e+02 
86.557   3.24000000e+02 
86.449   3.22000000e+02 
86.342   2.89000000e+02 
86.235   3.18000000e+02 
86.127   2.77000000e+02 
86.020   2.67000000e+02 
85.913   3.03000000e+02 
85.805   3.44000000e+02 
85.698   3.01000000e+02 
85.591   3.41000000e+02 
85.483   3.63000000e+02 
85.376   3.94000000e+02 
85.268   4.67000000e+02 
85.161   4.71000000e+02 
85.054   5.76000000e+02 
84.946   5.99000000e+02 
84.839   6.73000000e+02 
84.732   7.63000000e+02 
84.624   7.81000000e+02 
84.517   8.76000000e+02 
84.409   1.01700000e+03 
84.302   1.15100000e+03 
84.195   1.27800000e+03 
84.087   1.40900000e+03 
83.980   1.47800000e+03 
83.873   1.62700000e+03 
83.765   1.46500000e+03 
83.658   1.25300000e+03 
83.551   1.00700000e+03 
83.443   7.62000000e+02 
83.336   6.00000000e+02 
83.228   4.75000000e+02 
83.121   3.35000000e+02 
83.014   2.90000000e+02 
82.906   2.30000000e+02 
82.799   2.15000000e+02 
82.692   1.92000000e+02 
82.584   1.64000000e+02 
82.477   1.60000000e+02 
82.369   1.55000000e+02 
82.262   1.32000000e+02 
82.155   1.51000000e+02 
82.047   1.56000000e+02 
81.940   1.07000000e+02 
81.833   1.20000000e+02 
81.725   1.02000000e+02 
81.618   1.31000000e+02 
81.511   1.13000000e+02 
81.403   1.30000000e+02 
81.296   1.15000000e+02 
81.188   1.28000000e+02 
81.081   1.20000000e+02 
[ Region 3 Curve ]
BEcenter= 85.000  
BEwidth= -7.838  
Excitation= 1486.600
Time_p_channel= 768.000 
Size= 74
88.919   7.35000000e+02 
88.812   7.99000000e+02 
88.704   8.60000000e+02 
88.597   9.81000000e+02 
88.489   1.10300000e+03 
88.382   1.17800000e+03 
88.275   1.42000000e+03 
88.167   1.69000000e+03 
88.060   1.93900000e+03 
87.953   2.21800000e+03 
87.845   2.61600000e+03 
87.738   2.68600000e+03 
87.631   2.79400000e+03 
87.523   2.66200000e+03 
87.416   2.31900000e+03 
87.308   1.84600000e+03 
87.201   1.45200000e+03 
87.094   1.10900000e+03 
86.986   8.53000000e+02 
86.879   6.84000000e+02 
86.772   6.58000000e+02 
86.664   6.49000000e+02 
86.557   6.01000000e+02 
86.449   5.32000000e+02 
86.342   6.04000000e+02 
86.235   5.58000000e+02 
86.127   5.80000000e+02 
86.020   6.14000000e+02 
85.913   5.75000000e+02 
85.805   6.75000000e+02 
85.698   6.18000000e+02 
85.591   7.16000000e+02 
85.483   7.80000000e+02 
85.376   9.08000000e+02 
85.268   9.37000000e+02 
85.161   1.10000000e+03 
85.054   1.25600000e+03 
84.946   1.38500000e+03 
84.839   1.47200000e+03 
84.732   1.64300000e+03 
84.624   1.75900000e+03 
84.517   2.09400000e+03 
84.409   2.25300000e+03 
84.302   2.55700000e+03 
84.195   2.78900000e+03 
84.087   3.02400000e+03 
83.980   3.06800000e+03 
83.873   2.86300000e+03 
83.765   2.38800000e+03 
83.658   1.86500000e+03 
83.551   1.37800000e+03 
83.443   9.85000000e+02 
83.336   7.62000000e+02 
83.228   5.79000000e+02 
83.121   4.94000000e+02 
83.014   4.04000000e+02 
82.906   3.72000000e+02 
82.799   3.44000000e+02 
82.692   3.59000000e+02 
82.584   2.94000000e+02 
82.477   2.71000000e+02 
82.369   2.74000000e+02 
82.262   2.69000000e+02 
82.155   2.66000000e+02 
82.047   2.13000000e+02 
81.940   2.47000000e+02 
81.833   2.26000000e+02 
81.725   2.47000000e+02 
81.618   2.45000000e+02 
81.511   2.38000000e+02 
81.403   2.34000000e+02 
81.296   2.16000000e+02 
81.188   2.23000000e+02 
81.081   2.31000000e+02 
[ Region 4 Curve ]
BEcenter= 85.000  
BEwidth= -7.838  
Excitation= 1486.600
Time_p_channel= 768.000 
Size= 74
88.919   1.27600000e+03 
88.812   1.39600000e+03 
88.704   1.62400000e+03 
88.597   1.74400000e+03 
88.489   2.06800000e+03 
88.382   2.38100000e+03 
88.275   2.73000000e+03 
88.167   3.17600000e+03 
88.060   3.60200000e+03 
87.953   3.91300000e+03 
87.845   4.09500000e+03 
87.738   4.06200000e+03 
87.631   3.67800000e+03 
87.523   3.29700000e+03 
87.416   2.47700000e+03 
87.308   1.92100000e+03 
87.201   1.49500000e+03 
87.094   1.26200000e+03 
86.986   1.07400000e+03 
86.879   9.85000000e+02 
86.772   8.95000000e+02 
86.664   8.68000000e+02 
86.557   8.52000000e+02 
86.449   8.30000000e+02 
86.342   8.26000000e+02 
86.235   8.86000000e+02 
86.127   8.61000000e+02 
86.020   9.06000000e+02 
85.913   9.46000000e+02 
85.805   1.03100000e+03 
85.698   1.09700000e+03 
85.591   1.31500000e+03 
85.483   1.36900000e+03 
85.376   1.53500000e+03 
85.268   1.79800000e+03 
85.161   1.92500000e+03 
85.054   2.10100000e+03 
84.946   2.28800000e+03 
84.839   2.51700000e+03 
84.732   2.72700000e+03 
84.624   3.14800000e+03 
84.517   3.59200000e+03 
84.409   4.12000000e+03 
84.302   4.38400000e+03 
84.195   4.57300000e+03 
84.087   4.58800000e+03 
83.980   4.08000000e+03 
83.873   3.24800000e+03 
83.765   2.52500000e+03 
83.658   1.80500000e+03 
83.551   1.39400000e+03 
83.443   9.86000000e+02 
83.336   8.01000000e+02 
83.228   6.98000000e+02 
83.121   6.36000000e+02 
83.014   5.48000000e+02 
82.906   4.67000000e+02 
82.799   4.35000000e+02 
82.692   4.27000000e+02 
82.584   4.37000000e+02 
82.477   3.78000000e+02 
82.369   3.40000000e+02 
82.262   3.80000000e+02 
82.155   3.27000000e+02 
82.047   3.54000000e+02 
81.940   3.21000000e+02 
81.833   3.26000000e+02 
81.725   3.10000000e+02 
81.618   2.87000000e+02 
81.511   3.23000000e+02 
81.403   3.44000000e+02 
81.296   3.15000000e+02 
81.188   3.23000000e+02 
81.081   2.96000000e+02 
[ Region 5 Curve ]
BEcenter= 85.000  
BEwidth= -7.838  
Excitation= 1486.600
Time_p_channel= 768.000 
Size= 74
88.919   1.71100000e+03 
88.812   1.80200000e+03 
88.704   2.03500000e+03 
88.597   2.29300000e+03 
88.489   2.65800000e+03 
88.382   3.19800000e+03 
88.275   3.64500000e+03 
88.167   4.02100000e+03 
88.060   4.58400000e+03 
87.953   5.10700000e+03 
87.845   5.46600000e+03 
87.738   5.46100000e+03 
87.631   5.15000000e+03 
87.523   4.75300000e+03 
87.416   3.80600000e+03 
87.308   3.00800000e+03 
87.201   2.39500000e+03 
87.094   1.87700000e+03 
86.986   1.59100000e+03 
86.879   1.41300000e+03 
86.772   1.30900000e+03 
86.664   1.18800000e+03 
86.557   1.12500000e+03 
86.449   1.08600000e+03 
86.342   1.10500000e+03 
86.235   1.10300000e+03 
86.127   1.19300000e+03 
86.020   1.18200000e+03 
85.913   1.33200000e+03 
85.805   1.36500000e+03 
85.698   1.55200000e+03 
85.591   1.64600000e+03 
85.483   1.91400000e+03 
85.376   2.02300000e+03 
85.268   2.31500000e+03 
85.161   2.39800000e+03 
85.054   2.74300000e+03 
84.946   3.11300000e+03 
84.839   3.29100000e+03 
84.732   3.70600000e+03 
84.624   4.28200000e+03 
84.517   4.60500000e+03 
84.409   5.24400000e+03 
84.302   5.72100000e+03 
84.195   6.07100000e+03 
84.087   6.01200000e+03 
83.980   5.66600000e+03 
83.873   4.82100000e+03 
83.765   3.77200000e+03 
83.658   2.83400000e+03 
83.551   2.21600000e+03 
83.443   1.61500000e+03 
83.336   1.27400000e+03 
83.228   9.97000000e+02 
83.121   9.18000000e+02 
83.014   7.78000000e+02 
82.906   7.34000000e+02 
82.799   6.37000000e+02 
82.692   5.64000000e+02 
82.584   5.34000000e+02 
82.477   5.24000000e+02 
82.369   5.02000000e+02 
82.262   4.94000000e+02 
82.155   4.63000000e+02 
82.047   4.61000000e+02 
81.940   5.00000000e+02 
81.833   4.00000000e+02 
81.725   3.85000000e+02 
81.618   3.90000000e+02 
81.511   3.84000000e+02 
81.403   4.54000000e+02 
81.296   4.08000000e+02 
81.188   3.76000000e+02 
81.081   3.65000000e+02 
[ Region 6 Curve ]
BEcenter= 85.000  
BEwidth= -7.838  
Excitation= 1486.600
Time_p_channel= 768.000 
Size= 74
88.919   2.28600000e+03 
88.812   2.43700000e+03 
88.704   2.88200000e+03 
88.597   3.23400000e+03 
88.489   3.79300000e+03 
88.382   4.26500000e+03 
88.275   4.73500000e+03 
88.167   5.57300000e+03 
88.060   6.03800000e+03 
87.953   6.46600000e+03 
87.845   6.50500000e+03 
87.738   6.25400000e+03 
87.631   5.57500000e+03 
87.523   4.77200000e+03 
87.416   4.24800000e+03 
87.308   3.32100000e+03 
87.201   2.70400000e+03 
87.094   2.32200000e+03 
86.986   1.98700000e+03 
86.879   1.76400000e+03 
86.772   1.63100000e+03 
86.664   1.51600000e+03 
86.557   1.49700000e+03 
86.449   1.40500000e+03 
86.342   1.32000000e+03 
86.235   1.42100000e+03 
86.127   1.48700000e+03 
86.020   1.53600000e+03 
85.913   1.69300000e+03 
85.805   1.81400000e+03 
85.698   1.96900000e+03 
85.591   2.23700000e+03 
85.483   2.49600000e+03 
85.376   2.69400000e+03 
85.268   3.00400000e+03 
85.161   3.34900000e+03 
85.054   3.72200000e+03 
84.946   4.04200000e+03 
84.839   4.62300000e+03 
84.732   5.03000000e+03 
84.624   5.71900000e+03 
84.517   6.32200000e+03 
84.409   6.83200000e+03 
84.302   7.12100000e+03 
84.195   6.96500000e+03 
84.087   6.81900000e+03 
83.980   5.75000000e+03 
83.873   4.86900000e+03 
83.765   3.94900000e+03 
83.658   3.09700000e+03 
83.551   2.36700000e+03 
83.443   1.94500000e+03 
83.336   1.57100000e+03 
83.228   1.21600000e+03 
83.121   1.05200000e+03 
83.014   9.84000000e+02 
82.906   8.73000000e+02 
82.799   7.44000000e+02 
82.692   6.96000000e+02 
82.584   6.44000000e+02 
82.477   6.52000000e+02 
82.369   5.85000000e+02 
82.262   5.65000000e+02 
82.155   4.83000000e+02 
82.047   5.50000000e+02 
81.940   4.90000000e+02 
81.833   5.37000000e+02 
81.725   5.14000000e+02 
81.618   4.69000000e+02 
81.511   4.38000000e+02 
81.403   4.59000000e+02 
81.296   4.77000000e+02 
81.188   4.79000000e+02 
81.081   4.59000000e+02 
[ Region 7 Curve ]
BEcenter= 85.000  
BEwidth= -7.838  
Excitation= 1486.600
Time_p_channel= 768.000 
Size= 74
88.919   2.67300000e+03 
88.812   2.89900000e+03 
88.704   3.45700000e+03 
88.597   3.93500000e+03 
88.489   4.43700000e+03 
88.382   4.99700000e+03 
88.275   5.61600000e+03 
88.167   6.17700000e+03 
88.060   6.68600000e+03 
87.953   6.92400000e+03 
87.845   6.61800000e+03 
87.738   6.08700000e+03 
87.631   5.48200000e+03 
87.523   4.92000000e+03 
87.416   4.17100000e+03 
87.308   3.58500000e+03 
87.201   3.02700000e+03 
87.094   2.64300000e+03 
86.986   2.23800000e+03 
86.879   2.09800000e+03 
86.772   1.88000000e+03 
86.664   1.72500000e+03 
86.557   1.68900000e+03 
86.449   1.61800000e+03 
86.342   1.61300000e+03 
86.235   1.59600000e+03 
86.127   1.70500000e+03 
86.020   1.79100000e+03 
85.913   1.90900000e+03 
85.805   2.08100000e+03 
85.698   2.39800000e+03 
85.591   2.54600000e+03 
85.483   2.82900000e+03 
85.376   3.02800000e+03 
85.268   3.50700000e+03 
85.161   3.83500000e+03 
85.054   4.25300000e+03 
84.946   4.67900000e+03 
84.839   5.43000000e+03 
84.732   5.94600000e+03 
84.624   6.70700000e+03 
84.517   7.13000000e+03 
84.409   7.47000000e+03 
84.302   7.42000000e+03 
84.195   7.18500000e+03 
84.087   6.62900000e+03 
83.980   5.84600000e+03 
83.873   4.94000000e+03 
83.765   4.13900000e+03 
83.658   3.54400000e+03 
83.551   2.75700000e+03 
83.443   2.29600000e+03 
83.336   1.87300000e+03 
83.228   1.55000000e+03 
83.121   1.39300000e+03 
83.014   1.20000000e+03 
82.906   9.83000000e+02 
82.799   9.57000000e+02 
82.692   8.31000000e+02 
82.584   7.99000000e+02 
82.477   6.71000000e+02 
82.369   6.66000000e+02 
82.262   6.39000000e+02 
82.155   5.95000000e+02 
82.047   6.27000000e+02 
81.940   5.55000000e+02 
81.833   5.43000000e+02 
81.725   5.70000000e+02 
81.618   5.50000000e+02 
81.511   4.96000000e+02 
81.403   4.99000000e+02 
81.296   5.03000000e+02 
81.188   4.76000000e+02 
81.081   4.85000000e+02 
