[ Experiment Parameters ]
Experiment Description= C1s mono= 6.25, take-off= -40,-30...40 
Number_of_Regions_in_Experiment= 9 

Original_File_name= c:\alexesca\data\97071502.xps 
Instrument= ESCA-West
Date= 07-15-1997
Time=  08:49:28

[ Region 1 Parameters ]
Region_Description = C 1s    dithered                           
BEcenter(eV) = 284.000000
BEwidth(eV) = 10.000000
BEstep(eV) = 0.071875
Dwell_Time(sec) = 1.000000
N_o_scans = 1  
N_o_Channels = 139  
Excitation_Energy = 0.000000  
Scan_mode = 0  (DITHERED)

[ Region 2 Parameters ]
Region_Description = C 1s    dithered                           
BEcenter(eV) = 284.000000
BEwidth(eV) = 10.000000
BEstep(eV) = 0.071875
Dwell_Time(sec) = 1.000000
N_o_scans = 1  
N_o_Channels = 139  
Excitation_Energy = 0.000000  
Scan_mode = 0  (DITHERED)

[ Region 3 Parameters ]
Region_Description = C 1s    dithered                           
BEcenter(eV) = 284.000000
BEwidth(eV) = 10.000000
BEstep(eV) = 0.071875
Dwell_Time(sec) = 1.000000
N_o_scans = 1  
N_o_Channels = 139  
Excitation_Energy = 0.000000  
Scan_mode = 0  (DITHERED)

[ Region 4 Parameters ]
Region_Description = C 1s    dithered                           
BEcenter(eV) = 284.000000
BEwidth(eV) = 10.000000
BEstep(eV) = 0.071875
Dwell_Time(sec) = 1.000000
N_o_scans = 1  
N_o_Channels = 139  
Excitation_Energy = 0.000000  
Scan_mode = 0  (DITHERED)

[ Region 5 Parameters ]
Region_Description = C 1s    dithered                           
BEcenter(eV) = 284.000000
BEwidth(eV) = 10.000000
BEstep(eV) = 0.071875
Dwell_Time(sec) = 1.000000
N_o_scans = 1  
N_o_Channels = 139  
Excitation_Energy = 0.000000  
Scan_mode = 0  (DITHERED)

[ Region 6 Parameters ]
Region_Description = C 1s    dithered                           
BEcenter(eV) = 284.000000
BEwidth(eV) = 10.000000
BEstep(eV) = 0.071875
Dwell_Time(sec) = 1.000000
N_o_scans = 1  
N_o_Channels = 139  
Excitation_Energy = 0.000000  
Scan_mode = 0  (DITHERED)

[ Region 7 Parameters ]
Region_Description = C 1s    dithered                           
BEcenter(eV) = 284.000000
BEwidth(eV) = 10.000000
BEstep(eV) = 0.071875
Dwell_Time(sec) = 1.000000
N_o_scans = 1  
N_o_Channels = 139  
Excitation_Energy = 0.000000  
Scan_mode = 0  (DITHERED)

[ Region 8 Parameters ]
Region_Description = C 1s    dithered                           
BEcenter(eV) = 284.000000
BEwidth(eV) = 10.000000
BEstep(eV) = 0.071875
Dwell_Time(sec) = 1.000000
N_o_scans = 1  
N_o_Channels = 139  
Excitation_Energy = 0.000000  
Scan_mode = 0  (DITHERED)

[ Region 9 Parameters ]
Region_Description = C 1s    dithered                           
BEcenter(eV) = 284.000000
BEwidth(eV) = 10.000000
BEstep(eV) = 0.071875
Dwell_Time(sec) = 1.000000
N_o_scans = 1  
N_o_Channels = 139  
Excitation_Energy = 0.000000  
Scan_mode = 0  (DITHERED)

[ Region 1 Curve ]
BEcenter= 284.000 
BEwidth= -9.898  
Excitation= 1486.600
Time_p_channel= 512.000 
Size= 139
288.949  3.75000000e+02 
288.877  3.74000000e+02 
288.806  3.74000000e+02 
288.734  3.48000000e+02 
288.662  3.98000000e+02 
288.591  3.60000000e+02 
288.519  3.96000000e+02 
288.447  3.71000000e+02 
288.375  3.64000000e+02 
288.304  3.54000000e+02 
288.232  4.27000000e+02 
288.160  4.06000000e+02 
288.088  3.83000000e+02 
288.017  3.80000000e+02 
287.945  3.74000000e+02 
287.873  4.12000000e+02 
287.802  4.02000000e+02 
287.730  3.86000000e+02 
287.658  4.08000000e+02 
287.586  4.13000000e+02 
287.515  4.13000000e+02 
287.443  4.11000000e+02 
287.371  3.76000000e+02 
287.299  4.54000000e+02 
287.228  4.52000000e+02 
287.156  4.59000000e+02 
287.084  4.44000000e+02 
287.013  4.63000000e+02 
286.941  4.47000000e+02 
286.869  4.54000000e+02 
286.797  4.94000000e+02 
286.726  5.27000000e+02 
286.654  4.96000000e+02 
286.582  5.41000000e+02 
286.510  5.50000000e+02 
286.439  5.23000000e+02 
286.367  5.63000000e+02 
286.295  5.79000000e+02 
286.224  6.11000000e+02 
286.152  5.76000000e+02 
286.080  6.10000000e+02 
286.008  6.31000000e+02 
285.937  6.34000000e+02 
285.865  6.35000000e+02 
285.793  6.99000000e+02 
285.721  7.35000000e+02 
285.650  7.11000000e+02 
285.578  7.16000000e+02 
285.506  7.55000000e+02 
285.435  7.73000000e+02 
285.363  7.92000000e+02 
285.291  7.54000000e+02 
285.219  8.16000000e+02 
285.148  8.32000000e+02 
285.076  8.00000000e+02 
285.004  8.10000000e+02 
284.932  8.39000000e+02 
284.861  8.45000000e+02 
284.789  7.80000000e+02 
284.717  8.13000000e+02 
284.646  6.98000000e+02 
284.574  6.60000000e+02 
284.502  7.11000000e+02 
284.430  6.88000000e+02 
284.359  6.65000000e+02 
284.287  6.34000000e+02 
284.215  5.89000000e+02 
284.143  5.08000000e+02 
284.072  5.61000000e+02 
284.000  5.06000000e+02 
283.928  4.95000000e+02 
283.857  4.65000000e+02 
283.785  4.63000000e+02 
283.713  4.30000000e+02 
283.641  4.03000000e+02 
283.570  4.14000000e+02 
283.498  3.72000000e+02 
283.426  3.59000000e+02 
283.354  3.55000000e+02 
283.283  3.83000000e+02 
283.211  3.62000000e+02 
283.139  3.54000000e+02 
283.068  3.82000000e+02 
282.996  3.48000000e+02 
282.924  3.73000000e+02 
282.852  3.62000000e+02 
282.781  3.59000000e+02 
282.709  3.36000000e+02 
282.637  3.59000000e+02 
282.565  3.32000000e+02 
282.494  3.56000000e+02 
282.422  3.57000000e+02 
282.350  3.42000000e+02 
282.279  2.95000000e+02 
282.207  3.50000000e+02 
282.135  3.34000000e+02 
282.063  3.34000000e+02 
281.992  3.27000000e+02 
281.920  3.40000000e+02 
281.848  3.40000000e+02 
281.776  3.57000000e+02 
281.705  3.40000000e+02 
281.633  3.26000000e+02 
281.561  3.22000000e+02 
281.490  3.52000000e+02 
281.418  3.25000000e+02 
281.346  3.19000000e+02 
281.274  3.23000000e+02 
281.203  3.45000000e+02 
281.131  3.53000000e+02 
281.059  3.24000000e+02 
280.987  3.31000000e+02 
280.916  3.03000000e+02 
280.844  3.47000000e+02 
280.772  3.50000000e+02 
280.701  3.36000000e+02 
280.629  3.09000000e+02 
280.557  3.41000000e+02 
280.485  3.42000000e+02 
280.414  3.21000000e+02 
280.342  3.15000000e+02 
280.270  3.71000000e+02 
280.198  3.50000000e+02 
280.127  3.22000000e+02 
280.055  3.33000000e+02 
279.983  3.38000000e+02 
279.912  3.51000000e+02 
279.840  3.16000000e+02 
279.768  3.77000000e+02 
279.696  3.34000000e+02 
279.625  3.59000000e+02 
279.553  3.47000000e+02 
279.481  3.69000000e+02 
279.409  3.04000000e+02 
279.338  3.40000000e+02 
279.266  3.17000000e+02 
279.194  3.49000000e+02 
279.123  3.33000000e+02 
279.051  3.19000000e+02 
[ Region 2 Curve ]
BEcenter= 284.000 
BEwidth= -9.898  
Excitation= 1486.600
Time_p_channel= 512.000 
Size= 139
288.949  6.74000000e+02 
288.877  7.17000000e+02 
288.806  6.53000000e+02 
288.734  6.88000000e+02 
288.662  6.81000000e+02 
288.591  6.93000000e+02 
288.519  6.69000000e+02 
288.447  7.13000000e+02 
288.375  6.64000000e+02 
288.304  6.50000000e+02 
288.232  7.22000000e+02 
288.160  6.85000000e+02 
288.088  6.93000000e+02 
288.017  7.21000000e+02 
287.945  7.03000000e+02 
287.873  6.87000000e+02 
287.802  6.86000000e+02 
287.730  7.48000000e+02 
287.658  7.30000000e+02 
287.586  7.16000000e+02 
287.515  7.66000000e+02 
287.443  7.64000000e+02 
287.371  7.67000000e+02 
287.299  7.76000000e+02 
287.228  7.72000000e+02 
287.156  8.25000000e+02 
287.084  8.21000000e+02 
287.013  8.07000000e+02 
286.941  8.59000000e+02 
286.869  9.10000000e+02 
286.797  9.23000000e+02 
286.726  9.40000000e+02 
286.654  9.21000000e+02 
286.582  1.07900000e+03 
286.510  9.84000000e+02 
286.439  9.62000000e+02 
286.367  1.04300000e+03 
286.295  1.05600000e+03 
286.224  1.09800000e+03 
286.152  1.13600000e+03 
286.080  1.17100000e+03 
286.008  1.06800000e+03 
285.937  1.23600000e+03 
285.865  1.14000000e+03 
285.793  1.23200000e+03 
285.721  1.29500000e+03 
285.650  1.32700000e+03 
285.578  1.34500000e+03 
285.506  1.41900000e+03 
285.435  1.44500000e+03 
285.363  1.38000000e+03 
285.291  1.39600000e+03 
285.219  1.41800000e+03 
285.148  1.44200000e+03 
285.076  1.39300000e+03 
285.004  1.41900000e+03 
284.932  1.40600000e+03 
284.861  1.35400000e+03 
284.789  1.32400000e+03 
284.717  1.27700000e+03 
284.646  1.24100000e+03 
284.574  1.21000000e+03 
284.502  1.16600000e+03 
284.430  1.08200000e+03 
284.359  1.09300000e+03 
284.287  1.07100000e+03 
284.215  9.01000000e+02 
284.143  9.44000000e+02 
284.072  9.13000000e+02 
284.000  8.31000000e+02 
283.928  8.08000000e+02 
283.857  7.21000000e+02 
283.785  7.58000000e+02 
283.713  6.63000000e+02 
283.641  6.88000000e+02 
283.570  6.90000000e+02 
283.498  7.01000000e+02 
283.426  6.42000000e+02 
283.354  6.57000000e+02 
283.283  6.10000000e+02 
283.211  6.38000000e+02 
283.139  5.85000000e+02 
283.068  6.32000000e+02 
282.996  6.67000000e+02 
282.924  6.03000000e+02 
282.852  6.23000000e+02 
282.781  6.21000000e+02 
282.709  6.45000000e+02 
282.637  6.39000000e+02 
282.565  5.79000000e+02 
282.494  6.15000000e+02 
282.422  5.81000000e+02 
282.350  5.91000000e+02 
282.279  6.02000000e+02 
282.207  6.27000000e+02 
282.135  6.07000000e+02 
282.063  6.07000000e+02 
281.992  5.95000000e+02 
281.920  6.06000000e+02 
281.848  6.16000000e+02 
281.776  6.27000000e+02 
281.705  6.75000000e+02 
281.633  5.87000000e+02 
281.561  6.45000000e+02 
281.490  6.35000000e+02 
281.418  6.57000000e+02 
281.346  6.16000000e+02 
281.274  6.11000000e+02 
281.203  6.21000000e+02 
281.131  6.08000000e+02 
281.059  6.65000000e+02 
280.987  6.66000000e+02 
280.916  5.71000000e+02 
280.844  6.22000000e+02 
280.772  6.28000000e+02 
280.701  6.06000000e+02 
280.629  6.17000000e+02 
280.557  6.33000000e+02 
280.485  6.35000000e+02 
280.414  6.13000000e+02 
280.342  5.53000000e+02 
280.270  6.22000000e+02 
280.198  5.86000000e+02 
280.127  6.32000000e+02 
280.055  6.43000000e+02 
279.983  5.91000000e+02 
279.912  6.07000000e+02 
279.840  6.01000000e+02 
279.768  5.98000000e+02 
279.696  6.07000000e+02 
279.625  6.30000000e+02 
279.553  5.99000000e+02 
279.481  6.53000000e+02 
279.409  6.08000000e+02 
279.338  6.24000000e+02 
279.266  5.93000000e+02 
279.194  6.40000000e+02 
279.123  6.08000000e+02 
279.051  6.33000000e+02 
[ Region 3 Curve ]
BEcenter= 284.000 
BEwidth= -9.898  
Excitation= 1486.600
Time_p_channel= 512.000 
Size= 139
288.949  9.05000000e+02 
288.877  8.91000000e+02 
288.806  8.99000000e+02 
288.734  9.42000000e+02 
288.662  9.09000000e+02 
288.591  8.97000000e+02 
288.519  9.10000000e+02 
288.447  8.78000000e+02 
288.375  9.41000000e+02 
288.304  9.81000000e+02 
288.232  9.04000000e+02 
288.160  8.65000000e+02 
288.088  9.09000000e+02 
288.017  8.73000000e+02 
287.945  9.68000000e+02 
287.873  9.15000000e+02 
287.802  9.64000000e+02 
287.730  9.82000000e+02 
287.658  9.54000000e+02 
287.586  1.00200000e+03 
287.515  9.85000000e+02 
287.443  1.05500000e+03 
287.371  1.04900000e+03 
287.299  1.02500000e+03 
287.228  1.10300000e+03 
287.156  1.11000000e+03 
287.084  1.13700000e+03 
287.013  1.16100000e+03 
286.941  1.19600000e+03 
286.869  1.17400000e+03 
286.797  1.23200000e+03 
286.726  1.31800000e+03 
286.654  1.22300000e+03 
286.582  1.31000000e+03 
286.510  1.39300000e+03 
286.439  1.39100000e+03 
286.367  1.38000000e+03 
286.295  1.42800000e+03 
286.224  1.39700000e+03 
286.152  1.50700000e+03 
286.080  1.50800000e+03 
286.008  1.50300000e+03 
285.937  1.56600000e+03 
285.865  1.62300000e+03 
285.793  1.73600000e+03 
285.721  1.67300000e+03 
285.650  1.69500000e+03 
285.578  1.73700000e+03 
285.506  1.74200000e+03 
285.435  1.83500000e+03 
285.363  1.85300000e+03 
285.291  1.79600000e+03 
285.219  1.75500000e+03 
285.148  1.85600000e+03 
285.076  1.80500000e+03 
285.004  1.72000000e+03 
284.932  1.68500000e+03 
284.861  1.67500000e+03 
284.789  1.69200000e+03 
284.717  1.57100000e+03 
284.646  1.58500000e+03 
284.574  1.47200000e+03 
284.502  1.32700000e+03 
284.430  1.30100000e+03 
284.359  1.33400000e+03 
284.287  1.25500000e+03 
284.215  1.16800000e+03 
284.143  1.06800000e+03 
284.072  1.01400000e+03 
284.000  1.00400000e+03 
283.928  9.59000000e+02 
283.857  9.15000000e+02 
283.785  9.13000000e+02 
283.713  8.91000000e+02 
283.641  8.92000000e+02 
283.570  8.92000000e+02 
283.498  8.72000000e+02 
283.426  8.68000000e+02 
283.354  8.29000000e+02 
283.283  8.05000000e+02 
283.211  8.56000000e+02 
283.139  8.24000000e+02 
283.068  9.08000000e+02 
282.996  7.87000000e+02 
282.924  7.96000000e+02 
282.852  7.96000000e+02 
282.781  8.29000000e+02 
282.709  8.18000000e+02 
282.637  8.10000000e+02 
282.565  8.38000000e+02 
282.494  7.88000000e+02 
282.422  7.88000000e+02 
282.350  8.21000000e+02 
282.279  8.04000000e+02 
282.207  8.07000000e+02 
282.135  8.03000000e+02 
282.063  8.60000000e+02 
281.992  8.16000000e+02 
281.920  8.22000000e+02 
281.848  7.75000000e+02 
281.776  7.85000000e+02 
281.705  8.20000000e+02 
281.633  7.98000000e+02 
281.561  8.33000000e+02 
281.490  8.29000000e+02 
281.418  8.13000000e+02 
281.346  8.20000000e+02 
281.274  7.81000000e+02 
281.203  7.81000000e+02 
281.131  8.25000000e+02 
281.059  7.81000000e+02 
280.987  8.03000000e+02 
280.916  8.30000000e+02 
280.844  7.90000000e+02 
280.772  8.01000000e+02 
280.701  8.30000000e+02 
280.629  7.96000000e+02 
280.557  8.29000000e+02 
280.485  8.02000000e+02 
280.414  7.86000000e+02 
280.342  8.12000000e+02 
280.270  7.81000000e+02 
280.198  8.07000000e+02 
280.127  7.94000000e+02 
280.055  8.13000000e+02 
279.983  8.48000000e+02 
279.912  8.13000000e+02 
279.840  8.22000000e+02 
279.768  8.01000000e+02 
279.696  8.21000000e+02 
279.625  8.27000000e+02 
279.553  8.07000000e+02 
279.481  8.40000000e+02 
279.409  8.19000000e+02 
279.338  7.88000000e+02 
279.266  8.40000000e+02 
279.194  8.17000000e+02 
279.123  7.82000000e+02 
279.051  8.25000000e+02 
[ Region 4 Curve ]
BEcenter= 284.000 
BEwidth= -9.898  
Excitation= 1486.600
Time_p_channel= 512.000 
Size= 139
288.949  9.86000000e+02 
288.877  1.09700000e+03 
288.806  1.04400000e+03 
288.734  1.03900000e+03 
288.662  1.02400000e+03 
288.591  1.03400000e+03 
288.519  1.02800000e+03 
288.447  1.08300000e+03 
288.375  1.03000000e+03 
288.304  1.02300000e+03 
288.232  1.02700000e+03 
288.160  1.02000000e+03 
288.088  1.10000000e+03 
288.017  1.09200000e+03 
287.945  1.07400000e+03 
287.873  1.06400000e+03 
287.802  1.09800000e+03 
287.730  1.17200000e+03 
287.658  1.17600000e+03 
287.586  1.13100000e+03 
287.515  1.17300000e+03 
287.443  1.14500000e+03 
287.371  1.18200000e+03 
287.299  1.27800000e+03 
287.228  1.18600000e+03 
287.156  1.25200000e+03 
287.084  1.39400000e+03 
287.013  1.25700000e+03 
286.941  1.32700000e+03 
286.869  1.40600000e+03 
286.797  1.40700000e+03 
286.726  1.41300000e+03 
286.654  1.43500000e+03 
286.582  1.48400000e+03 
286.510  1.51400000e+03 
286.439  1.56900000e+03 
286.367  1.51600000e+03 
286.295  1.60200000e+03 
286.224  1.70700000e+03 
286.152  1.73000000e+03 
286.080  1.65900000e+03 
286.008  1.71000000e+03 
285.937  1.74700000e+03 
285.865  1.87200000e+03 
285.793  1.87900000e+03 
285.721  1.89900000e+03 
285.650  1.89200000e+03 
285.578  1.94000000e+03 
285.506  2.01800000e+03 
285.435  2.08500000e+03 
285.363  2.12500000e+03 
285.291  2.02000000e+03 
285.219  2.00900000e+03 
285.148  2.00800000e+03 
285.076  1.97400000e+03 
285.004  1.93100000e+03 
284.932  1.85900000e+03 
284.861  1.88600000e+03 
284.789  1.72200000e+03 
284.717  1.73100000e+03 
284.646  1.71300000e+03 
284.574  1.58300000e+03 
284.502  1.58800000e+03 
284.430  1.45300000e+03 
284.359  1.40800000e+03 
284.287  1.22300000e+03 
284.215  1.26000000e+03 
284.143  1.17400000e+03 
284.072  1.09600000e+03 
284.000  1.15700000e+03 
283.928  1.10400000e+03 
283.857  1.08900000e+03 
283.785  9.98000000e+02 
283.713  1.07500000e+03 
283.641  9.96000000e+02 
283.570  9.94000000e+02 
283.498  9.41000000e+02 
283.426  1.05000000e+03 
283.354  9.20000000e+02 
283.283  9.82000000e+02 
283.211  9.05000000e+02 
283.139  9.53000000e+02 
283.068  9.56000000e+02 
282.996  9.60000000e+02 
282.924  9.15000000e+02 
282.852  1.04100000e+03 
282.781  9.87000000e+02 
282.709  9.84000000e+02 
282.637  9.86000000e+02 
282.565  9.41000000e+02 
282.494  9.41000000e+02 
282.422  9.72000000e+02 
282.350  9.95000000e+02 
282.279  9.40000000e+02 
282.207  9.49000000e+02 
282.135  9.17000000e+02 
282.063  9.90000000e+02 
281.992  9.44000000e+02 
281.920  9.82000000e+02 
281.848  9.17000000e+02 
281.776  9.44000000e+02 
281.705  9.83000000e+02 
281.633  9.55000000e+02 
281.561  9.47000000e+02 
281.490  9.46000000e+02 
281.418  9.20000000e+02 
281.346  9.65000000e+02 
281.274  9.58000000e+02 
281.203  9.55000000e+02 
281.131  9.68000000e+02 
281.059  9.42000000e+02 
280.987  9.60000000e+02 
280.916  9.48000000e+02 
280.844  9.00000000e+02 
280.772  9.37000000e+02 
280.701  9.16000000e+02 
280.629  9.64000000e+02 
280.557  9.08000000e+02 
280.485  9.22000000e+02 
280.414  9.80000000e+02 
280.342  9.46000000e+02 
280.270  9.87000000e+02 
280.198  9.72000000e+02 
280.127  9.03000000e+02 
280.055  9.53000000e+02 
279.983  9.28000000e+02 
279.912  9.50000000e+02 
279.840  9.80000000e+02 
279.768  9.57000000e+02 
279.696  9.56000000e+02 
279.625  9.54000000e+02 
279.553  9.06000000e+02 
279.481  9.78000000e+02 
279.409  9.26000000e+02 
279.338  9.18000000e+02 
279.266  9.26000000e+02 
279.194  9.45000000e+02 
279.123  9.11000000e+02 
279.051  9.17000000e+02 
[ Region 5 Curve ]
BEcenter= 284.000 
BEwidth= -9.898  
Excitation= 1486.600
Time_p_channel= 512.000 
Size= 139
288.949  1.07200000e+03 
288.877  1.09000000e+03 
288.806  1.06700000e+03 
288.734  1.11500000e+03 
288.662  1.10100000e+03 
288.591  1.14400000e+03 
288.519  1.11200000e+03 
288.447  1.05700000e+03 
288.375  1.05900000e+03 
288.304  1.13500000e+03 
288.232  1.13800000e+03 
288.160  1.12800000e+03 
288.088  1.10500000e+03 
288.017  1.15900000e+03 
287.945  1.15800000e+03 
287.873  1.24900000e+03 
287.802  1.21000000e+03 
287.730  1.19700000e+03 
287.658  1.17900000e+03 
287.586  1.17100000e+03 
287.515  1.14900000e+03 
287.443  1.25100000e+03 
287.371  1.38100000e+03 
287.299  1.32300000e+03 
287.228  1.35200000e+03 
287.156  1.39500000e+03 
287.084  1.41000000e+03 
287.013  1.37500000e+03 
286.941  1.37600000e+03 
286.869  1.47200000e+03 
286.797  1.50300000e+03 
286.726  1.55200000e+03 
286.654  1.51200000e+03 
286.582  1.54000000e+03 
286.510  1.59100000e+03 
286.439  1.62100000e+03 
286.367  1.61800000e+03 
286.295  1.70200000e+03 
286.224  1.65800000e+03 
286.152  1.82100000e+03 
286.080  1.90300000e+03 
286.008  1.83400000e+03 
285.937  1.88700000e+03 
285.865  1.90600000e+03 
285.793  1.96500000e+03 
285.721  2.02900000e+03 
285.650  1.99100000e+03 
285.578  2.09900000e+03 
285.506  2.12900000e+03 
285.435  2.13800000e+03 
285.363  2.11100000e+03 
285.291  2.10800000e+03 
285.219  2.06400000e+03 
285.148  2.04900000e+03 
285.076  1.98100000e+03 
285.004  1.93700000e+03 
284.932  1.90500000e+03 
284.861  1.85600000e+03 
284.789  1.77600000e+03 
284.717  1.75300000e+03 
284.646  1.65700000e+03 
284.574  1.60200000e+03 
284.502  1.58100000e+03 
284.430  1.46800000e+03 
284.359  1.42400000e+03 
284.287  1.28000000e+03 
284.215  1.31800000e+03 
284.143  1.20500000e+03 
284.072  1.28500000e+03 
284.000  1.16100000e+03 
283.928  1.17800000e+03 
283.857  1.09600000e+03 
283.785  1.09400000e+03 
283.713  1.05700000e+03 
283.641  1.10800000e+03 
283.570  1.09300000e+03 
283.498  1.03500000e+03 
283.426  1.05600000e+03 
283.354  1.03700000e+03 
283.283  1.03500000e+03 
283.211  1.04100000e+03 
283.139  1.04500000e+03 
283.068  1.01200000e+03 
282.996  1.07800000e+03 
282.924  1.02400000e+03 
282.852  1.02300000e+03 
282.781  1.03400000e+03 
282.709  1.00000000e+03 
282.637  1.00200000e+03 
282.565  1.02800000e+03 
282.494  9.92000000e+02 
282.422  1.02300000e+03 
282.350  9.97000000e+02 
282.279  9.81000000e+02 
282.207  1.06500000e+03 
282.135  9.90000000e+02 
282.063  1.02900000e+03 
281.992  1.00800000e+03 
281.920  9.85000000e+02 
281.848  1.00400000e+03 
281.776  9.87000000e+02 
281.705  9.33000000e+02 
281.633  1.00200000e+03 
281.561  9.36000000e+02 
281.490  1.01400000e+03 
281.418  9.80000000e+02 
281.346  1.01200000e+03 
281.274  9.62000000e+02 
281.203  9.94000000e+02 
281.131  1.06900000e+03 
281.059  9.82000000e+02 
280.987  1.00900000e+03 
280.916  9.83000000e+02 
280.844  1.00700000e+03 
280.772  1.04500000e+03 
280.701  1.03600000e+03 
280.629  1.03900000e+03 
280.557  1.03100000e+03 
280.485  9.80000000e+02 
280.414  1.02300000e+03 
280.342  9.87000000e+02 
280.270  9.87000000e+02 
280.198  9.69000000e+02 
280.127  1.01200000e+03 
280.055  9.84000000e+02 
279.983  1.03100000e+03 
279.912  9.84000000e+02 
279.840  1.00300000e+03 
279.768  9.98000000e+02 
279.696  1.03000000e+03 
279.625  1.00200000e+03 
279.553  1.00300000e+03 
279.481  9.31000000e+02 
279.409  1.00600000e+03 
279.338  9.72000000e+02 
279.266  1.01800000e+03 
279.194  1.04400000e+03 
279.123  1.03400000e+03 
279.051  1.02000000e+03 
[ Region 6 Curve ]
BEcenter= 284.000 
BEwidth= -9.898  
Excitation= 1486.600
Time_p_channel= 512.000 
Size= 139
288.949  1.12700000e+03 
288.877  1.15600000e+03 
288.806  1.16500000e+03 
288.734  1.12100000e+03 
288.662  1.09000000e+03 
288.591  1.11300000e+03 
288.519  1.18300000e+03 
288.447  1.11800000e+03 
288.375  1.14900000e+03 
288.304  1.15800000e+03 
288.232  1.18700000e+03 
288.160  1.14900000e+03 
288.088  1.13400000e+03 
288.017  1.17300000e+03 
287.945  1.23200000e+03 
287.873  1.22300000e+03 
287.802  1.23600000e+03 
287.730  1.19900000e+03 
287.658  1.19400000e+03 
287.586  1.27600000e+03 
287.515  1.35700000e+03 
287.443  1.29500000e+03 
287.371  1.30300000e+03 
287.299  1.42400000e+03 
287.228  1.38100000e+03 
287.156  1.40500000e+03 
287.084  1.39400000e+03 
287.013  1.37600000e+03 
286.941  1.53500000e+03 
286.869  1.50300000e+03 
286.797  1.53000000e+03 
286.726  1.56000000e+03 
286.654  1.63100000e+03 
286.582  1.65500000e+03 
286.510  1.56600000e+03 
286.439  1.64800000e+03 
286.367  1.58700000e+03 
286.295  1.77500000e+03 
286.224  1.82200000e+03 
286.152  1.87700000e+03 
286.080  1.86100000e+03 
286.008  1.90400000e+03 
285.937  1.96600000e+03 
285.865  2.02900000e+03 
285.793  2.01500000e+03 
285.721  1.97700000e+03 
285.650  2.11500000e+03 
285.578  2.12900000e+03 
285.506  2.12300000e+03 
285.435  2.05500000e+03 
285.363  2.12300000e+03 
285.291  2.08900000e+03 
285.219  2.02600000e+03 
285.148  1.96300000e+03 
285.076  1.94100000e+03 
285.004  1.94900000e+03 
284.932  1.86500000e+03 
284.861  1.78300000e+03 
284.789  1.72600000e+03 
284.717  1.66800000e+03 
284.646  1.59100000e+03 
284.574  1.52700000e+03 
284.502  1.48800000e+03 
284.430  1.43500000e+03 
284.359  1.37700000e+03 
284.287  1.35900000e+03 
284.215  1.28300000e+03 
284.143  1.23400000e+03 
284.072  1.26800000e+03 
284.000  1.20500000e+03 
283.928  1.11500000e+03 
283.857  1.17900000e+03 
283.785  1.20000000e+03 
283.713  1.06800000e+03 
283.641  1.14800000e+03 
283.570  1.03900000e+03 
283.498  1.09400000e+03 
283.426  1.08700000e+03 
283.354  1.04700000e+03 
283.283  1.09400000e+03 
283.211  1.02700000e+03 
283.139  1.09900000e+03 
283.068  1.04700000e+03 
282.996  1.01500000e+03 
282.924  1.03200000e+03 
282.852  1.06900000e+03 
282.781  1.04400000e+03 
282.709  1.00700000e+03 
282.637  1.00800000e+03 
282.565  1.04300000e+03 
282.494  1.05900000e+03 
282.422  1.00300000e+03 
282.350  1.01900000e+03 
282.279  9.89000000e+02 
282.207  1.01700000e+03 
282.135  1.03500000e+03 
282.063  1.07500000e+03 
281.992  1.00900000e+03 
281.920  1.02600000e+03 
281.848  1.01300000e+03 
281.776  1.07500000e+03 
281.705  1.03300000e+03 
281.633  1.06300000e+03 
281.561  9.87000000e+02 
281.490  1.00700000e+03 
281.418  1.00100000e+03 
281.346  9.88000000e+02 
281.274  1.02200000e+03 
281.203  1.01900000e+03 
281.131  1.02200000e+03 
281.059  1.03800000e+03 
280.987  1.09000000e+03 
280.916  1.05000000e+03 
280.844  1.00700000e+03 
280.772  1.03800000e+03 
280.701  1.05600000e+03 
280.629  1.01700000e+03 
280.557  1.03300000e+03 
280.485  1.01700000e+03 
280.414  9.77000000e+02 
280.342  1.03500000e+03 
280.270  1.01300000e+03 
280.198  1.04100000e+03 
280.127  9.60000000e+02 
280.055  1.10800000e+03 
279.983  1.08500000e+03 
279.912  1.01300000e+03 
279.840  1.03900000e+03 
279.768  1.03000000e+03 
279.696  1.10000000e+03 
279.625  1.02600000e+03 
279.553  1.02300000e+03 
279.481  1.06900000e+03 
279.409  1.00300000e+03 
279.338  9.96000000e+02 
279.266  1.02200000e+03 
279.194  1.05400000e+03 
279.123  9.85000000e+02 
279.051  9.78000000e+02 
[ Region 7 Curve ]
BEcenter= 284.000 
BEwidth= -9.898  
Excitation= 1486.600
Time_p_channel= 512.000 
Size= 139
288.949  1.03200000e+03 
288.877  1.15800000e+03 
288.806  1.11800000e+03 
288.734  1.13100000e+03 
288.662  1.08800000e+03 
288.591  1.14800000e+03 
288.519  1.11900000e+03 
288.447  1.14300000e+03 
288.375  1.13600000e+03 
288.304  1.09800000e+03 
288.232  1.20600000e+03 
288.160  1.07000000e+03 
288.088  1.09800000e+03 
288.017  1.17100000e+03 
287.945  1.12600000e+03 
287.873  1.09900000e+03 
287.802  1.18500000e+03 
287.730  1.20600000e+03 
287.658  1.19700000e+03 
287.586  1.15200000e+03 
287.515  1.22600000e+03 
287.443  1.33100000e+03 
287.371  1.22300000e+03 
287.299  1.23900000e+03 
287.228  1.35600000e+03 
287.156  1.38900000e+03 
287.084  1.37900000e+03 
287.013  1.38900000e+03 
286.941  1.41900000e+03 
286.869  1.45900000e+03 
286.797  1.49700000e+03 
286.726  1.53600000e+03 
286.654  1.54800000e+03 
286.582  1.57900000e+03 
286.510  1.60800000e+03 
286.439  1.59200000e+03 
286.367  1.61000000e+03 
286.295  1.63800000e+03 
286.224  1.71300000e+03 
286.152  1.78400000e+03 
286.080  1.80600000e+03 
286.008  1.86900000e+03 
285.937  1.93700000e+03 
285.865  1.89500000e+03 
285.793  1.93000000e+03 
285.721  1.98700000e+03 
285.650  2.10800000e+03 
285.578  2.03200000e+03 
285.506  2.06100000e+03 
285.435  2.03900000e+03 
285.363  1.92400000e+03 
285.291  1.97200000e+03 
285.219  2.02600000e+03 
285.148  1.95300000e+03 
285.076  1.91300000e+03 
285.004  1.91400000e+03 
284.932  1.84600000e+03 
284.861  1.70700000e+03 
284.789  1.70500000e+03 
284.717  1.63400000e+03 
284.646  1.64100000e+03 
284.574  1.55500000e+03 
284.502  1.57600000e+03 
284.430  1.43400000e+03 
284.359  1.42000000e+03 
284.287  1.34700000e+03 
284.215  1.26800000e+03 
284.143  1.24200000e+03 
284.072  1.21900000e+03 
284.000  1.23700000e+03 
283.928  1.19500000e+03 
283.857  1.17200000e+03 
283.785  1.16800000e+03 
283.713  1.10400000e+03 
283.641  1.09400000e+03 
283.570  1.07800000e+03 
283.498  1.06900000e+03 
283.426  1.08100000e+03 
283.354  1.00200000e+03 
283.283  1.03000000e+03 
283.211  1.06700000e+03 
283.139  1.07300000e+03 
283.068  1.06200000e+03 
282.996  1.07900000e+03 
282.924  1.05100000e+03 
282.852  1.03400000e+03 
282.781  1.11600000e+03 
282.709  1.05900000e+03 
282.637  9.88000000e+02 
282.565  1.00100000e+03 
282.494  9.78000000e+02 
282.422  1.04700000e+03 
282.350  1.05000000e+03 
282.279  1.04100000e+03 
282.207  9.70000000e+02 
282.135  1.03800000e+03 
282.063  1.07600000e+03 
281.992  1.07700000e+03 
281.920  9.92000000e+02 
281.848  1.04400000e+03 
281.776  9.97000000e+02 
281.705  1.00400000e+03 
281.633  9.93000000e+02 
281.561  1.05200000e+03 
281.490  9.98000000e+02 
281.418  1.09500000e+03 
281.346  1.07600000e+03 
281.274  9.88000000e+02 
281.203  1.00800000e+03 
281.131  1.04400000e+03 
281.059  1.03600000e+03 
280.987  1.06700000e+03 
280.916  1.01000000e+03 
280.844  1.10000000e+03 
280.772  1.04500000e+03 
280.701  1.01700000e+03 
280.629  1.00100000e+03 
280.557  1.04800000e+03 
280.485  9.99000000e+02 
280.414  1.02600000e+03 
280.342  9.81000000e+02 
280.270  1.02400000e+03 
280.198  1.00600000e+03 
280.127  1.07200000e+03 
280.055  1.06600000e+03 
279.983  9.80000000e+02 
279.912  1.03000000e+03 
279.840  9.74000000e+02 
279.768  1.00600000e+03 
279.696  1.04200000e+03 
279.625  1.06800000e+03 
279.553  9.89000000e+02 
279.481  1.05300000e+03 
279.409  1.03900000e+03 
279.338  9.79000000e+02 
279.266  1.04500000e+03 
279.194  1.01300000e+03 
279.123  1.05100000e+03 
279.051  9.91000000e+02 
[ Region 8 Curve ]
BEcenter= 284.000 
BEwidth= -9.898  
Excitation= 1486.600
Time_p_channel= 512.000 
Size= 139
288.949  1.15100000e+03 
288.877  1.03800000e+03 
288.806  1.08400000e+03 
288.734  1.12600000e+03 
288.662  1.10400000e+03 
288.591  1.09900000e+03 
288.519  1.09600000e+03 
288.447  1.09700000e+03 
288.375  1.11100000e+03 
288.304  1.13100000e+03 
288.232  1.07900000e+03 
288.160  1.14300000e+03 
288.088  1.18000000e+03 
288.017  1.08600000e+03 
287.945  1.18500000e+03 
287.873  1.10200000e+03 
287.802  1.13500000e+03 
287.730  1.15000000e+03 
287.658  1.12700000e+03 
287.586  1.17300000e+03 
287.515  1.13200000e+03 
287.443  1.23700000e+03 
287.371  1.25200000e+03 
287.299  1.18000000e+03 
287.228  1.25900000e+03 
287.156  1.24900000e+03 
287.084  1.27500000e+03 
287.013  1.26200000e+03 
286.941  1.28200000e+03 
286.869  1.36100000e+03 
286.797  1.29300000e+03 
286.726  1.37600000e+03 
286.654  1.46200000e+03 
286.582  1.41500000e+03 
286.510  1.44500000e+03 
286.439  1.52700000e+03 
286.367  1.57400000e+03 
286.295  1.54800000e+03 
286.224  1.55800000e+03 
286.152  1.63100000e+03 
286.080  1.63600000e+03 
286.008  1.65800000e+03 
285.937  1.63600000e+03 
285.865  1.81900000e+03 
285.793  1.82200000e+03 
285.721  1.77600000e+03 
285.650  1.82000000e+03 
285.578  1.84300000e+03 
285.506  1.95400000e+03 
285.435  1.85400000e+03 
285.363  1.86600000e+03 
285.291  1.96600000e+03 
285.219  1.94700000e+03 
285.148  1.91300000e+03 
285.076  1.91300000e+03 
285.004  1.94600000e+03 
284.932  1.94700000e+03 
284.861  1.84100000e+03 
284.789  1.83200000e+03 
284.717  1.77700000e+03 
284.646  1.72400000e+03 
284.574  1.63100000e+03 
284.502  1.71200000e+03 
284.430  1.54100000e+03 
284.359  1.54800000e+03 
284.287  1.51700000e+03 
284.215  1.44500000e+03 
284.143  1.37900000e+03 
284.072  1.36200000e+03 
284.000  1.38600000e+03 
283.928  1.30900000e+03 
283.857  1.28900000e+03 
283.785  1.27200000e+03 
283.713  1.22200000e+03 
283.641  1.25700000e+03 
283.570  1.18300000e+03 
283.498  1.15800000e+03 
283.426  1.13000000e+03 
283.354  1.16700000e+03 
283.283  1.11300000e+03 
283.211  1.07500000e+03 
283.139  1.08400000e+03 
283.068  1.10400000e+03 
282.996  1.07500000e+03 
282.924  1.02200000e+03 
282.852  1.03300000e+03 
282.781  1.05700000e+03 
282.709  1.03800000e+03 
282.637  1.00100000e+03 
282.565  1.03800000e+03 
282.494  1.00600000e+03 
282.422  1.02500000e+03 
282.350  1.05400000e+03 
282.279  9.92000000e+02 
282.207  1.03200000e+03 
282.135  1.03300000e+03 
282.063  1.03400000e+03 
281.992  9.84000000e+02 
281.920  1.02500000e+03 
281.848  1.01100000e+03 
281.776  9.90000000e+02 
281.705  9.48000000e+02 
281.633  1.01800000e+03 
281.561  9.88000000e+02 
281.490  1.04800000e+03 
281.418  1.02100000e+03 
281.346  1.01400000e+03 
281.274  9.97000000e+02 
281.203  1.01000000e+03 
281.131  1.02400000e+03 
281.059  9.95000000e+02 
280.987  1.06500000e+03 
280.916  1.02200000e+03 
280.844  9.84000000e+02 
280.772  1.02200000e+03 
280.701  9.88000000e+02 
280.629  1.03300000e+03 
280.557  1.03600000e+03 
280.485  1.03600000e+03 
280.414  9.62000000e+02 
280.342  9.94000000e+02 
280.270  9.81000000e+02 
280.198  9.72000000e+02 
280.127  1.00900000e+03 
280.055  1.03300000e+03 
279.983  9.79000000e+02 
279.912  1.02100000e+03 
279.840  9.88000000e+02 
279.768  1.01600000e+03 
279.696  9.39000000e+02 
279.625  1.02500000e+03 
279.553  1.07500000e+03 
279.481  1.01900000e+03 
279.409  1.01800000e+03 
279.338  9.99000000e+02 
279.266  1.07900000e+03 
279.194  9.61000000e+02 
279.123  1.04700000e+03 
279.051  9.85000000e+02 
[ Region 9 Curve ]
BEcenter= 284.000 
BEwidth= -9.898  
Excitation= 1486.600
Time_p_channel= 512.000 
Size= 139
288.949  1.01900000e+03 
288.877  1.06100000e+03 
288.806  1.01700000e+03 
288.734  1.07400000e+03 
288.662  1.04200000e+03 
288.591  1.00000000e+03 
288.519  1.03100000e+03 
288.447  1.04300000e+03 
288.375  1.05300000e+03 
288.304  1.06000000e+03 
288.232  1.03500000e+03 
288.160  1.06900000e+03 
288.088  1.11200000e+03 
288.017  1.06200000e+03 
287.945  1.06000000e+03 
287.873  1.00900000e+03 
287.802  1.15100000e+03 
287.730  1.11500000e+03 
287.658  1.12400000e+03 
287.586  1.11100000e+03 
287.515  1.17700000e+03 
287.443  1.15800000e+03 
287.371  1.21500000e+03 
287.299  1.14200000e+03 
287.228  1.19900000e+03 
287.156  1.20900000e+03 
287.084  1.22200000e+03 
287.013  1.26100000e+03 
286.941  1.21800000e+03 
286.869  1.25000000e+03 
286.797  1.28700000e+03 
286.726  1.34600000e+03 
286.654  1.30700000e+03 
286.582  1.33800000e+03 
286.510  1.34700000e+03 
286.439  1.47300000e+03 
286.367  1.38900000e+03 
286.295  1.51100000e+03 
286.224  1.49400000e+03 
286.152  1.50300000e+03 
286.080  1.58300000e+03 
286.008  1.56600000e+03 
285.937  1.63100000e+03 
285.865  1.68000000e+03 
285.793  1.69500000e+03 
285.721  1.71000000e+03 
285.650  1.67700000e+03 
285.578  1.75600000e+03 
285.506  1.70700000e+03 
285.435  1.85300000e+03 
285.363  1.76600000e+03 
285.291  1.76400000e+03 
285.219  1.83700000e+03 
285.148  1.77800000e+03 
285.076  1.73500000e+03 
285.004  1.75900000e+03 
284.932  1.73800000e+03 
284.861  1.63800000e+03 
284.789  1.63000000e+03 
284.717  1.62800000e+03 
284.646  1.58600000e+03 
284.574  1.50200000e+03 
284.502  1.48900000e+03 
284.430  1.52000000e+03 
284.359  1.46500000e+03 
284.287  1.48500000e+03 
284.215  1.40500000e+03 
284.143  1.42100000e+03 
284.072  1.35800000e+03 
284.000  1.27400000e+03 
283.928  1.32500000e+03 
283.857  1.24200000e+03 
283.785  1.23300000e+03 
283.713  1.21700000e+03 
283.641  1.23400000e+03 
283.570  1.24700000e+03 
283.498  1.08400000e+03 
283.426  1.09800000e+03 
283.354  1.12000000e+03 
283.283  1.13100000e+03 
283.211  1.11600000e+03 
283.139  1.01300000e+03 
283.068  1.06300000e+03 
282.996  1.00200000e+03 
282.924  1.00300000e+03 
282.852  1.03800000e+03 
282.781  1.01100000e+03 
282.709  9.98000000e+02 
282.637  9.36000000e+02 
282.565  1.00700000e+03 
282.494  1.01600000e+03 
282.422  9.65000000e+02 
282.350  9.94000000e+02 
282.279  9.53000000e+02 
282.207  9.60000000e+02 
282.135  9.68000000e+02 
282.063  9.45000000e+02 
281.992  9.83000000e+02 
281.920  9.71000000e+02 
281.848  9.86000000e+02 
281.776  9.74000000e+02 
281.705  9.13000000e+02 
281.633  9.72000000e+02 
281.561  9.28000000e+02 
281.490  9.42000000e+02 
281.418  9.69000000e+02 
281.346  1.01400000e+03 
281.274  9.97000000e+02 
281.203  9.37000000e+02 
281.131  9.14000000e+02 
281.059  9.67000000e+02 
280.987  9.45000000e+02 
280.916  8.98000000e+02 
280.844  9.77000000e+02 
280.772  9.78000000e+02 
280.701  9.56000000e+02 
280.629  9.64000000e+02 
280.557  9.68000000e+02 
280.485  9.84000000e+02 
280.414  9.66000000e+02 
280.342  9.03000000e+02 
280.270  9.54000000e+02 
280.198  9.24000000e+02 
280.127  1.00300000e+03 
280.055  9.30000000e+02 
279.983  9.73000000e+02 
279.912  9.52000000e+02 
279.840  9.65000000e+02 
279.768  9.53000000e+02 
279.696  9.68000000e+02 
279.625  9.81000000e+02 
279.553  1.03400000e+03 
279.481  9.88000000e+02 
279.409  9.56000000e+02 
279.338  9.84000000e+02 
279.266  9.90000000e+02 
279.194  9.48000000e+02 
279.123  9.49000000e+02 
279.051  9.50000000e+02 
