[ Experiment Parameters ]
Experiment Description= Au4f, mono=7, rod=-1, to=-40,-30...40 
Number_of_Regions_in_Experiment= 9 

Original_File_name= c:\alexesca\data\97071702.xps 
Instrument= ESCA-West
Date= 07-17-1997
Time=  17:50:47

[ Region 1 Parameters ]
Region_Description = au 4f dithered                     
BEcenter(eV) = 85.500000
BEwidth(eV) = 10.000000
BEstep(eV) = 0.107813
Dwell_Time(sec) = 0.500000
N_o_scans = 2  
N_o_Channels = 92  
Excitation_Energy = -0.000000  
Scan_mode = 0  (DITHERED)

[ Region 2 Parameters ]
Region_Description = au 4f dithered                     
BEcenter(eV) = 85.500000
BEwidth(eV) = 10.000000
BEstep(eV) = 0.107813
Dwell_Time(sec) = 0.500000
N_o_scans = 2  
N_o_Channels = 92  
Excitation_Energy = -0.000000  
Scan_mode = 0  (DITHERED)

[ Region 3 Parameters ]
Region_Description = au 4f dithered                     
BEcenter(eV) = 85.500000
BEwidth(eV) = 10.000000
BEstep(eV) = 0.107813
Dwell_Time(sec) = 0.500000
N_o_scans = 2  
N_o_Channels = 92  
Excitation_Energy = -0.000000  
Scan_mode = 0  (DITHERED)

[ Region 4 Parameters ]
Region_Description = au 4f dithered                     
BEcenter(eV) = 85.500000
BEwidth(eV) = 10.000000
BEstep(eV) = 0.107813
Dwell_Time(sec) = 0.500000
N_o_scans = 2  
N_o_Channels = 92  
Excitation_Energy = -0.000000  
Scan_mode = 0  (DITHERED)

[ Region 5 Parameters ]
Region_Description = au 4f dithered                     
BEcenter(eV) = 85.500000
BEwidth(eV) = 10.000000
BEstep(eV) = 0.107813
Dwell_Time(sec) = 0.500000
N_o_scans = 2  
N_o_Channels = 92  
Excitation_Energy = -0.000000  
Scan_mode = 0  (DITHERED)

[ Region 6 Parameters ]
Region_Description = au 4f dithered                     
BEcenter(eV) = 85.500000
BEwidth(eV) = 10.000000
BEstep(eV) = 0.107813
Dwell_Time(sec) = 0.500000
N_o_scans = 2  
N_o_Channels = 92  
Excitation_Energy = -0.000000  
Scan_mode = 0  (DITHERED)

[ Region 7 Parameters ]
Region_Description = au 4f dithered                     
BEcenter(eV) = 85.500000
BEwidth(eV) = 10.000000
BEstep(eV) = 0.107813
Dwell_Time(sec) = 0.500000
N_o_scans = 2  
N_o_Channels = 92  
Excitation_Energy = -0.000000  
Scan_mode = 0  (DITHERED)

[ Region 8 Parameters ]
Region_Description = au 4f dithered                     
BEcenter(eV) = 85.500000
BEwidth(eV) = 10.000000
BEstep(eV) = 0.107813
Dwell_Time(sec) = 0.500000
N_o_scans = 2  
N_o_Channels = 92  
Excitation_Energy = -0.000000  
Scan_mode = 0  (DITHERED)

[ Region 9 Parameters ]
Region_Description = au 4f dithered                     
BEcenter(eV) = 85.500000
BEwidth(eV) = 10.000000
BEstep(eV) = 0.107813
Dwell_Time(sec) = 0.500000
N_o_scans = 2  
N_o_Channels = 92  
Excitation_Energy = -0.000000  
Scan_mode = 0  (DITHERED)

[ Region 1 Curve ]
BEcenter= 85.500  
BEwidth= -9.764  
Excitation= 1486.600
Time_p_channel= 768.000 
Size= 92
90.382   9.80000000e+01 
90.275   9.40000000e+01 
90.167   8.50000000e+01 
90.060   9.60000000e+01 
89.953   9.60000000e+01 
89.845   7.80000000e+01 
89.738   9.90000000e+01 
89.631   8.60000000e+01 
89.523   8.60000000e+01 
89.416   9.00000000e+01 
89.309   9.20000000e+01 
89.202   1.16000000e+02 
89.094   9.00000000e+01 
88.987   1.15000000e+02 
88.880   9.00000000e+01 
88.772   7.70000000e+01 
88.665   1.08000000e+02 
88.558   1.06000000e+02 
88.451   1.15000000e+02 
88.343   1.07000000e+02 
88.236   1.29000000e+02 
88.129   1.27000000e+02 
88.021   1.63000000e+02 
87.914   1.85000000e+02 
87.807   2.18000000e+02 
87.700   2.13000000e+02 
87.592   2.76000000e+02 
87.485   3.49000000e+02 
87.378   3.54000000e+02 
87.270   4.05000000e+02 
87.163   4.30000000e+02 
87.056   3.93000000e+02 
86.948   3.65000000e+02 
86.841   3.36000000e+02 
86.734   2.42000000e+02 
86.627   2.52000000e+02 
86.519   1.85000000e+02 
86.412   1.56000000e+02 
86.305   1.26000000e+02 
86.197   1.20000000e+02 
86.090   1.03000000e+02 
85.983   1.05000000e+02 
85.876   1.05000000e+02 
85.768   8.40000000e+01 
85.661   8.20000000e+01 
85.554   1.03000000e+02 
85.446   8.80000000e+01 
85.339   1.10000000e+02 
85.232   1.05000000e+02 
85.124   1.25000000e+02 
85.017   1.33000000e+02 
84.910   1.23000000e+02 
84.803   1.49000000e+02 
84.695   1.55000000e+02 
84.588   1.95000000e+02 
84.481   2.12000000e+02 
84.373   2.09000000e+02 
84.266   2.42000000e+02 
84.159   3.13000000e+02 
84.052   3.18000000e+02 
83.944   3.28000000e+02 
83.837   3.75000000e+02 
83.730   4.08000000e+02 
83.622   4.71000000e+02 
83.515   4.61000000e+02 
83.408   4.91000000e+02 
83.300   4.06000000e+02 
83.193   3.32000000e+02 
83.086   2.73000000e+02 
82.979   2.24000000e+02 
82.871   1.64000000e+02 
82.764   1.24000000e+02 
82.657   1.16000000e+02 
82.549   9.20000000e+01 
82.442   7.10000000e+01 
82.335   6.50000000e+01 
82.228   6.50000000e+01 
82.120   5.90000000e+01 
82.013   6.50000000e+01 
81.906   4.10000000e+01 
81.798   4.60000000e+01 
81.691   5.20000000e+01 
81.584   4.50000000e+01 
81.477   6.50000000e+01 
81.369   4.80000000e+01 
81.262   4.70000000e+01 
81.155   5.00000000e+01 
81.047   4.80000000e+01 
80.940   4.80000000e+01 
80.833   4.40000000e+01 
80.725   5.10000000e+01 
80.618   5.40000000e+01 
[ Region 2 Curve ]
BEcenter= 85.500  
BEwidth= -9.764  
Excitation= 1486.600
Time_p_channel= 768.000 
Size= 92
90.382   2.30000000e+02 
90.275   2.23000000e+02 
90.167   2.25000000e+02 
90.060   2.15000000e+02 
89.953   2.38000000e+02 
89.845   2.71000000e+02 
89.738   2.32000000e+02 
89.631   2.63000000e+02 
89.523   2.13000000e+02 
89.416   2.28000000e+02 
89.309   2.47000000e+02 
89.202   2.38000000e+02 
89.094   2.65000000e+02 
88.987   2.57000000e+02 
88.880   2.70000000e+02 
88.772   2.48000000e+02 
88.665   3.27000000e+02 
88.558   2.80000000e+02 
88.451   2.95000000e+02 
88.343   3.44000000e+02 
88.236   3.80000000e+02 
88.129   4.34000000e+02 
88.021   5.00000000e+02 
87.914   5.53000000e+02 
87.807   6.31000000e+02 
87.700   7.18000000e+02 
87.592   8.89000000e+02 
87.485   9.45000000e+02 
87.378   9.93000000e+02 
87.270   1.07600000e+03 
87.163   1.08100000e+03 
87.056   8.82000000e+02 
86.948   7.46000000e+02 
86.841   5.74000000e+02 
86.734   5.39000000e+02 
86.627   4.06000000e+02 
86.519   3.40000000e+02 
86.412   3.26000000e+02 
86.305   2.58000000e+02 
86.197   2.47000000e+02 
86.090   2.62000000e+02 
85.983   2.55000000e+02 
85.876   2.44000000e+02 
85.768   2.25000000e+02 
85.661   2.25000000e+02 
85.554   2.49000000e+02 
85.446   2.22000000e+02 
85.339   2.95000000e+02 
85.232   2.85000000e+02 
85.124   3.55000000e+02 
85.017   3.57000000e+02 
84.910   4.13000000e+02 
84.803   4.47000000e+02 
84.695   4.92000000e+02 
84.588   5.32000000e+02 
84.481   5.89000000e+02 
84.373   5.77000000e+02 
84.266   7.49000000e+02 
84.159   7.57000000e+02 
84.052   8.73000000e+02 
83.944   1.00600000e+03 
83.837   1.11800000e+03 
83.730   1.19200000e+03 
83.622   1.23900000e+03 
83.515   1.14800000e+03 
83.408   9.59000000e+02 
83.300   7.98000000e+02 
83.193   5.65000000e+02 
83.086   4.55000000e+02 
82.979   3.12000000e+02 
82.871   2.77000000e+02 
82.764   2.33000000e+02 
82.657   2.08000000e+02 
82.549   1.85000000e+02 
82.442   1.51000000e+02 
82.335   1.44000000e+02 
82.228   1.53000000e+02 
82.120   1.32000000e+02 
82.013   1.37000000e+02 
81.906   1.23000000e+02 
81.798   1.42000000e+02 
81.691   1.26000000e+02 
81.584   1.39000000e+02 
81.477   1.36000000e+02 
81.369   9.80000000e+01 
81.262   1.02000000e+02 
81.155   1.23000000e+02 
81.047   1.13000000e+02 
80.940   1.03000000e+02 
80.833   1.10000000e+02 
80.725   8.60000000e+01 
80.618   9.10000000e+01 
[ Region 3 Curve ]
BEcenter= 85.500  
BEwidth= -9.764  
Excitation= 1486.600
Time_p_channel= 768.000 
Size= 92
90.382   4.21000000e+02 
90.275   4.34000000e+02 
90.167   4.20000000e+02 
90.060   4.00000000e+02 
89.953   4.32000000e+02 
89.845   4.42000000e+02 
89.738   4.28000000e+02 
89.631   4.63000000e+02 
89.523   4.55000000e+02 
89.416   4.46000000e+02 
89.309   4.77000000e+02 
89.202   5.09000000e+02 
89.094   4.97000000e+02 
88.987   4.71000000e+02 
88.880   5.05000000e+02 
88.772   5.94000000e+02 
88.665   6.64000000e+02 
88.558   6.83000000e+02 
88.451   7.20000000e+02 
88.343   8.31000000e+02 
88.236   9.03000000e+02 
88.129   1.10500000e+03 
88.021   1.22400000e+03 
87.914   1.48800000e+03 
87.807   1.67400000e+03 
87.700   1.98000000e+03 
87.592   2.13800000e+03 
87.485   2.20900000e+03 
87.378   2.22000000e+03 
87.270   2.10700000e+03 
87.163   1.75700000e+03 
87.056   1.43100000e+03 
86.948   1.12200000e+03 
86.841   9.02000000e+02 
86.734   7.57000000e+02 
86.627   6.63000000e+02 
86.519   5.60000000e+02 
86.412   5.19000000e+02 
86.305   4.90000000e+02 
86.197   4.61000000e+02 
86.090   4.69000000e+02 
85.983   4.04000000e+02 
85.876   4.44000000e+02 
85.768   4.27000000e+02 
85.661   3.89000000e+02 
85.554   4.35000000e+02 
85.446   4.59000000e+02 
85.339   5.22000000e+02 
85.232   5.13000000e+02 
85.124   5.41000000e+02 
85.017   5.82000000e+02 
84.910   6.95000000e+02 
84.803   7.32000000e+02 
84.695   9.21000000e+02 
84.588   1.00100000e+03 
84.481   1.22200000e+03 
84.373   1.43600000e+03 
84.266   1.72200000e+03 
84.159   2.01600000e+03 
84.052   2.19400000e+03 
83.944   2.44800000e+03 
83.837   2.67700000e+03 
83.730   2.63400000e+03 
83.622   2.34100000e+03 
83.515   1.91500000e+03 
83.408   1.52000000e+03 
83.300   1.13500000e+03 
83.193   8.51000000e+02 
83.086   6.98000000e+02 
82.979   5.47000000e+02 
82.871   4.47000000e+02 
82.764   4.15000000e+02 
82.657   3.67000000e+02 
82.549   3.17000000e+02 
82.442   2.99000000e+02 
82.335   2.76000000e+02 
82.228   2.83000000e+02 
82.120   2.86000000e+02 
82.013   2.49000000e+02 
81.906   2.32000000e+02 
81.798   2.44000000e+02 
81.691   2.29000000e+02 
81.584   2.37000000e+02 
81.477   2.32000000e+02 
81.369   2.22000000e+02 
81.262   2.26000000e+02 
81.155   2.47000000e+02 
81.047   2.56000000e+02 
80.940   2.53000000e+02 
80.833   2.36000000e+02 
80.725   2.54000000e+02 
80.618   2.29000000e+02 
[ Region 4 Curve ]
BEcenter= 85.500  
BEwidth= -9.764  
Excitation= 1486.600
Time_p_channel= 768.000 
Size= 92
90.382   6.68000000e+02 
90.275   6.86000000e+02 
90.167   6.79000000e+02 
90.060   7.20000000e+02 
89.953   6.96000000e+02 
89.845   7.13000000e+02 
89.738   7.05000000e+02 
89.631   6.93000000e+02 
89.523   7.88000000e+02 
89.416   7.83000000e+02 
89.309   8.54000000e+02 
89.202   8.15000000e+02 
89.094   8.72000000e+02 
88.987   9.22000000e+02 
88.880   9.50000000e+02 
88.772   1.03500000e+03 
88.665   1.13300000e+03 
88.558   1.24600000e+03 
88.451   1.35200000e+03 
88.343   1.58500000e+03 
88.236   1.87400000e+03 
88.129   2.06000000e+03 
88.021   2.33400000e+03 
87.914   2.68500000e+03 
87.807   3.09500000e+03 
87.700   3.29200000e+03 
87.592   3.54500000e+03 
87.485   3.36000000e+03 
87.378   3.05700000e+03 
87.270   2.52000000e+03 
87.163   1.96300000e+03 
87.056   1.57600000e+03 
86.948   1.32100000e+03 
86.841   1.09600000e+03 
86.734   9.87000000e+02 
86.627   9.17000000e+02 
86.519   8.19000000e+02 
86.412   7.79000000e+02 
86.305   7.45000000e+02 
86.197   7.77000000e+02 
86.090   7.12000000e+02 
85.983   7.83000000e+02 
85.876   7.68000000e+02 
85.768   8.37000000e+02 
85.661   8.93000000e+02 
85.554   1.00000000e+03 
85.446   1.04400000e+03 
85.339   1.10400000e+03 
85.232   1.27700000e+03 
85.124   1.54500000e+03 
85.017   1.62800000e+03 
84.910   1.79400000e+03 
84.803   1.93000000e+03 
84.695   2.11900000e+03 
84.588   2.21200000e+03 
84.481   2.52300000e+03 
84.373   2.93900000e+03 
84.266   3.21800000e+03 
84.159   3.51100000e+03 
84.052   3.81900000e+03 
83.944   3.91100000e+03 
83.837   3.71400000e+03 
83.730   3.21500000e+03 
83.622   2.61500000e+03 
83.515   2.03700000e+03 
83.408   1.52600000e+03 
83.300   1.20200000e+03 
83.193   9.46000000e+02 
83.086   6.70000000e+02 
82.979   6.04000000e+02 
82.871   5.58000000e+02 
82.764   5.05000000e+02 
82.657   4.65000000e+02 
82.549   3.86000000e+02 
82.442   4.03000000e+02 
82.335   3.58000000e+02 
82.228   3.81000000e+02 
82.120   3.45000000e+02 
82.013   3.59000000e+02 
81.906   3.41000000e+02 
81.798   3.40000000e+02 
81.691   3.38000000e+02 
81.584   3.15000000e+02 
81.477   2.85000000e+02 
81.369   3.19000000e+02 
81.262   2.69000000e+02 
81.155   2.89000000e+02 
81.047   2.89000000e+02 
80.940   2.44000000e+02 
80.833   2.85000000e+02 
80.725   2.83000000e+02 
80.618   2.64000000e+02 
[ Region 5 Curve ]
BEcenter= 85.500  
BEwidth= -9.764  
Excitation= 1486.600
Time_p_channel= 768.000 
Size= 92
90.382   8.35000000e+02 
90.275   9.10000000e+02 
90.167   8.71000000e+02 
90.060   8.62000000e+02 
89.953   8.72000000e+02 
89.845   9.36000000e+02 
89.738   9.53000000e+02 
89.631   9.46000000e+02 
89.523   1.05400000e+03 
89.416   1.01400000e+03 
89.309   1.09300000e+03 
89.202   1.16600000e+03 
89.094   1.18700000e+03 
88.987   1.28400000e+03 
88.880   1.38400000e+03 
88.772   1.52000000e+03 
88.665   1.70000000e+03 
88.558   1.94100000e+03 
88.451   2.20500000e+03 
88.343   2.50000000e+03 
88.236   3.00300000e+03 
88.129   3.42600000e+03 
88.021   3.90200000e+03 
87.914   4.36300000e+03 
87.807   4.65900000e+03 
87.700   4.63900000e+03 
87.592   4.46000000e+03 
87.485   3.96200000e+03 
87.378   3.22300000e+03 
87.270   2.64100000e+03 
87.163   2.12500000e+03 
87.056   1.73400000e+03 
86.948   1.41900000e+03 
86.841   1.25700000e+03 
86.734   1.11400000e+03 
86.627   1.09800000e+03 
86.519   1.05800000e+03 
86.412   1.05000000e+03 
86.305   1.02500000e+03 
86.197   1.00800000e+03 
86.090   1.03500000e+03 
85.983   1.05800000e+03 
85.876   1.14500000e+03 
85.768   1.24900000e+03 
85.661   1.28200000e+03 
85.554   1.39500000e+03 
85.446   1.65300000e+03 
85.339   1.69800000e+03 
85.232   2.02600000e+03 
85.124   2.17100000e+03 
85.017   2.36100000e+03 
84.910   2.66400000e+03 
84.803   2.90400000e+03 
84.695   3.23500000e+03 
84.588   3.64700000e+03 
84.481   3.86900000e+03 
84.373   4.43800000e+03 
84.266   4.79900000e+03 
84.159   5.02200000e+03 
84.052   5.02600000e+03 
83.944   4.76600000e+03 
83.837   4.06400000e+03 
83.730   3.35900000e+03 
83.622   2.53100000e+03 
83.515   1.95900000e+03 
83.408   1.56800000e+03 
83.300   1.20200000e+03 
83.193   9.65000000e+02 
83.086   8.77000000e+02 
82.979   7.54000000e+02 
82.871   6.80000000e+02 
82.764   6.20000000e+02 
82.657   5.67000000e+02 
82.549   4.81000000e+02 
82.442   4.90000000e+02 
82.335   4.21000000e+02 
82.228   4.49000000e+02 
82.120   4.38000000e+02 
82.013   4.00000000e+02 
81.906   3.82000000e+02 
81.798   3.77000000e+02 
81.691   4.20000000e+02 
81.584   3.70000000e+02 
81.477   3.58000000e+02 
81.369   3.56000000e+02 
81.262   3.57000000e+02 
81.155   3.55000000e+02 
81.047   3.74000000e+02 
80.940   3.37000000e+02 
80.833   3.27000000e+02 
80.725   3.51000000e+02 
80.618   3.41000000e+02 
[ Region 6 Curve ]
BEcenter= 85.500  
BEwidth= -9.764  
Excitation= 1486.600
Time_p_channel= 768.000 
Size= 92
90.382   1.02900000e+03 
90.275   1.02900000e+03 
90.167   1.00500000e+03 
90.060   1.02300000e+03 
89.953   1.02100000e+03 
89.845   1.11200000e+03 
89.738   1.16000000e+03 
89.631   1.19900000e+03 
89.523   1.18700000e+03 
89.416   1.25200000e+03 
89.309   1.29900000e+03 
89.202   1.41300000e+03 
89.094   1.51200000e+03 
88.987   1.74200000e+03 
88.880   1.86200000e+03 
88.772   2.07300000e+03 
88.665   2.28100000e+03 
88.558   2.74900000e+03 
88.451   3.15100000e+03 
88.343   3.56400000e+03 
88.236   4.15900000e+03 
88.129   4.56000000e+03 
88.021   4.90800000e+03 
87.914   5.27600000e+03 
87.807   5.21400000e+03 
87.700   4.99600000e+03 
87.592   4.45800000e+03 
87.485   3.69500000e+03 
87.378   3.11600000e+03 
87.270   2.58100000e+03 
87.163   2.16600000e+03 
87.056   1.77900000e+03 
86.948   1.58800000e+03 
86.841   1.41100000e+03 
86.734   1.20600000e+03 
86.627   1.18600000e+03 
86.519   1.23700000e+03 
86.412   1.18300000e+03 
86.305   1.21000000e+03 
86.197   1.18300000e+03 
86.090   1.23200000e+03 
85.983   1.37800000e+03 
85.876   1.40200000e+03 
85.768   1.54900000e+03 
85.661   1.71700000e+03 
85.554   1.89600000e+03 
85.446   2.13600000e+03 
85.339   2.38800000e+03 
85.232   2.57800000e+03 
85.124   2.77100000e+03 
85.017   3.07100000e+03 
84.910   3.38800000e+03 
84.803   3.86000000e+03 
84.695   4.20800000e+03 
84.588   4.65700000e+03 
84.481   5.24400000e+03 
84.373   5.56100000e+03 
84.266   5.69300000e+03 
84.159   5.69800000e+03 
84.052   5.33700000e+03 
83.944   4.54000000e+03 
83.837   3.76200000e+03 
83.730   3.09900000e+03 
83.622   2.41500000e+03 
83.515   1.99300000e+03 
83.408   1.49600000e+03 
83.300   1.16700000e+03 
83.193   1.07700000e+03 
83.086   8.77000000e+02 
82.979   8.29000000e+02 
82.871   6.85000000e+02 
82.764   6.80000000e+02 
82.657   6.28000000e+02 
82.549   6.04000000e+02 
82.442   5.56000000e+02 
82.335   4.93000000e+02 
82.228   5.40000000e+02 
82.120   4.65000000e+02 
82.013   4.42000000e+02 
81.906   4.44000000e+02 
81.798   4.66000000e+02 
81.691   3.85000000e+02 
81.584   3.94000000e+02 
81.477   4.18000000e+02 
81.369   4.06000000e+02 
81.262   3.88000000e+02 
81.155   3.81000000e+02 
81.047   3.92000000e+02 
80.940   4.06000000e+02 
80.833   3.42000000e+02 
80.725   3.95000000e+02 
80.618   3.68000000e+02 
[ Region 7 Curve ]
BEcenter= 85.500  
BEwidth= -9.764  
Excitation= 1486.600
Time_p_channel= 768.000 
Size= 92
90.382   1.07500000e+03 
90.275   1.06100000e+03 
90.167   1.02000000e+03 
90.060   1.08300000e+03 
89.953   1.00600000e+03 
89.845   1.08900000e+03 
89.738   1.14800000e+03 
89.631   1.20400000e+03 
89.523   1.32400000e+03 
89.416   1.33400000e+03 
89.309   1.40500000e+03 
89.202   1.60700000e+03 
89.094   1.79300000e+03 
88.987   1.88300000e+03 
88.880   2.25300000e+03 
88.772   2.54300000e+03 
88.665   2.86500000e+03 
88.558   3.25500000e+03 
88.451   3.65100000e+03 
88.343   4.27500000e+03 
88.236   4.61400000e+03 
88.129   4.95000000e+03 
88.021   5.09400000e+03 
87.914   5.16000000e+03 
87.807   4.74600000e+03 
87.700   4.30600000e+03 
87.592   3.74200000e+03 
87.485   3.23200000e+03 
87.378   2.74200000e+03 
87.270   2.30500000e+03 
87.163   1.94100000e+03 
87.056   1.70800000e+03 
86.948   1.53900000e+03 
86.841   1.44300000e+03 
86.734   1.27700000e+03 
86.627   1.34800000e+03 
86.519   1.29700000e+03 
86.412   1.21800000e+03 
86.305   1.26400000e+03 
86.197   1.33300000e+03 
86.090   1.34300000e+03 
85.983   1.51600000e+03 
85.876   1.59800000e+03 
85.768   1.79400000e+03 
85.661   1.95000000e+03 
85.554   2.10100000e+03 
85.446   2.30100000e+03 
85.339   2.55200000e+03 
85.232   2.71200000e+03 
85.124   2.99500000e+03 
85.017   3.40200000e+03 
84.910   3.76400000e+03 
84.803   4.36400000e+03 
84.695   4.70300000e+03 
84.588   5.23300000e+03 
84.481   5.61200000e+03 
84.373   5.66900000e+03 
84.266   5.37000000e+03 
84.159   5.08900000e+03 
84.052   4.41500000e+03 
83.944   3.65800000e+03 
83.837   3.26600000e+03 
83.730   2.72300000e+03 
83.622   2.16000000e+03 
83.515   1.77500000e+03 
83.408   1.50900000e+03 
83.300   1.25400000e+03 
83.193   1.03800000e+03 
83.086   9.34000000e+02 
82.979   8.70000000e+02 
82.871   7.31000000e+02 
82.764   6.94000000e+02 
82.657   6.27000000e+02 
82.549   5.31000000e+02 
82.442   5.52000000e+02 
82.335   5.02000000e+02 
82.228   4.99000000e+02 
82.120   4.91000000e+02 
82.013   4.12000000e+02 
81.906   4.02000000e+02 
81.798   4.14000000e+02 
81.691   4.51000000e+02 
81.584   3.77000000e+02 
81.477   4.10000000e+02 
81.369   3.95000000e+02 
81.262   3.65000000e+02 
81.155   3.79000000e+02 
81.047   3.61000000e+02 
80.940   3.68000000e+02 
80.833   3.94000000e+02 
80.725   3.71000000e+02 
80.618   3.57000000e+02 
[ Region 8 Curve ]
BEcenter= 85.500  
BEwidth= -9.764  
Excitation= 1486.600
Time_p_channel= 768.000 
Size= 92
90.382   9.73000000e+02 
90.275   8.97000000e+02 
90.167   9.82000000e+02 
90.060   9.99000000e+02 
89.953   1.00400000e+03 
89.845   1.07300000e+03 
89.738   1.08800000e+03 
89.631   1.20800000e+03 
89.523   1.23600000e+03 
89.416   1.31200000e+03 
89.309   1.39500000e+03 
89.202   1.67800000e+03 
89.094   1.71500000e+03 
88.987   2.06300000e+03 
88.880   2.13000000e+03 
88.772   2.58600000e+03 
88.665   2.94900000e+03 
88.558   3.44300000e+03 
88.451   3.72500000e+03 
88.343   4.25900000e+03 
88.236   4.20400000e+03 
88.129   4.31500000e+03 
88.021   4.39000000e+03 
87.914   3.96000000e+03 
87.807   3.59900000e+03 
87.700   3.34000000e+03 
87.592   2.94500000e+03 
87.485   2.67800000e+03 
87.378   2.26100000e+03 
87.270   2.04100000e+03 
87.163   1.86500000e+03 
87.056   1.61400000e+03 
86.948   1.42800000e+03 
86.841   1.40500000e+03 
86.734   1.32200000e+03 
86.627   1.21900000e+03 
86.519   1.21300000e+03 
86.412   1.16600000e+03 
86.305   1.22000000e+03 
86.197   1.34100000e+03 
86.090   1.40800000e+03 
85.983   1.45700000e+03 
85.876   1.55000000e+03 
85.768   1.61000000e+03 
85.661   1.82700000e+03 
85.554   1.94100000e+03 
85.446   2.26500000e+03 
85.339   2.46000000e+03 
85.232   2.79700000e+03 
85.124   3.16000000e+03 
85.017   3.52600000e+03 
84.910   3.85300000e+03 
84.803   4.24600000e+03 
84.695   4.60000000e+03 
84.588   4.77000000e+03 
84.481   4.80100000e+03 
84.373   4.47400000e+03 
84.266   4.20800000e+03 
84.159   3.77900000e+03 
84.052   3.35100000e+03 
83.944   2.85400000e+03 
83.837   2.53400000e+03 
83.730   2.08800000e+03 
83.622   1.88900000e+03 
83.515   1.60600000e+03 
83.408   1.39100000e+03 
83.300   1.19400000e+03 
83.193   1.04800000e+03 
83.086   9.54000000e+02 
82.979   7.63000000e+02 
82.871   6.70000000e+02 
82.764   6.53000000e+02 
82.657   5.38000000e+02 
82.549   4.83000000e+02 
82.442   4.56000000e+02 
82.335   4.50000000e+02 
82.228   4.16000000e+02 
82.120   4.13000000e+02 
82.013   3.86000000e+02 
81.906   3.59000000e+02 
81.798   3.85000000e+02 
81.691   3.54000000e+02 
81.584   3.69000000e+02 
81.477   3.49000000e+02 
81.369   3.02000000e+02 
81.262   3.33000000e+02 
81.155   3.19000000e+02 
81.047   3.08000000e+02 
80.940   3.11000000e+02 
80.833   2.95000000e+02 
80.725   3.41000000e+02 
80.618   3.01000000e+02 
[ Region 9 Curve ]
BEcenter= 85.500  
BEwidth= -9.764  
Excitation= 1486.600
Time_p_channel= 768.000 
Size= 92
90.382   8.12000000e+02 
90.275   8.39000000e+02 
90.167   7.91000000e+02 
90.060   8.22000000e+02 
89.953   8.33000000e+02 
89.845   9.35000000e+02 
89.738   9.86000000e+02 
89.631   1.02600000e+03 
89.523   1.08500000e+03 
89.416   1.26200000e+03 
89.309   1.33200000e+03 
89.202   1.42400000e+03 
89.094   1.64400000e+03 
88.987   1.82000000e+03 
88.880   2.07300000e+03 
88.772   2.32700000e+03 
88.665   2.63200000e+03 
88.558   2.85800000e+03 
88.451   2.92300000e+03 
88.343   3.23000000e+03 
88.236   3.21800000e+03 
88.129   3.16600000e+03 
88.021   2.99300000e+03 
87.914   2.82800000e+03 
87.807   2.62000000e+03 
87.700   2.53000000e+03 
87.592   2.19600000e+03 
87.485   2.00200000e+03 
87.378   1.88600000e+03 
87.270   1.85400000e+03 
87.163   1.68600000e+03 
87.056   1.49300000e+03 
86.948   1.39600000e+03 
86.841   1.31200000e+03 
86.734   1.25600000e+03 
86.627   1.13500000e+03 
86.519   1.12900000e+03 
86.412   1.10300000e+03 
86.305   1.14800000e+03 
86.197   1.16700000e+03 
86.090   1.29900000e+03 
85.983   1.31500000e+03 
85.876   1.33400000e+03 
85.768   1.54100000e+03 
85.661   1.67500000e+03 
85.554   1.72600000e+03 
85.446   1.96600000e+03 
85.339   2.23300000e+03 
85.232   2.46700000e+03 
85.124   2.89600000e+03 
85.017   3.11200000e+03 
84.910   3.25700000e+03 
84.803   3.47700000e+03 
84.695   3.64900000e+03 
84.588   3.47900000e+03 
84.481   3.54600000e+03 
84.373   3.25400000e+03 
84.266   3.03200000e+03 
84.159   2.73200000e+03 
84.052   2.52500000e+03 
83.944   2.29400000e+03 
83.837   2.10400000e+03 
83.730   1.80500000e+03 
83.622   1.60000000e+03 
83.515   1.40700000e+03 
83.408   1.26200000e+03 
83.300   1.13200000e+03 
83.193   1.02100000e+03 
83.086   8.28000000e+02 
82.979   8.03000000e+02 
82.871   6.05000000e+02 
82.764   5.27000000e+02 
82.657   4.76000000e+02 
82.549   4.45000000e+02 
82.442   4.09000000e+02 
82.335   3.86000000e+02 
82.228   3.62000000e+02 
82.120   3.31000000e+02 
82.013   3.19000000e+02 
81.906   3.32000000e+02 
81.798   2.98000000e+02 
81.691   3.15000000e+02 
81.584   3.04000000e+02 
81.477   2.72000000e+02 
81.369   2.69000000e+02 
81.262   2.71000000e+02 
81.155   2.86000000e+02 
81.047   2.88000000e+02 
80.940   2.82000000e+02 
80.833   2.70000000e+02 
80.725   2.70000000e+02 
80.618   2.43000000e+02 
