[ Experiment Parameters ]
Experiment Description= <none> 
Number_of_Regions_in_Experiment= 2 

Original_File_name= c:\alexesca\data\97072902.xps 
Instrument= ESCA-West
Date= 07-29-1997
Time=  16:00:37

[ Region 1 Parameters ]
Region_Description = O for XPD                          
BEcenter(eV) = 532.000000
BEwidth(eV) = 10.000000
BEstep(eV) = 0.035938
Dwell_Time(sec) = 0.750000
N_o_scans = 1  
N_o_Channels = 278  
Excitation_Energy = 0.000000  
Scan_mode = 0  (DITHERED)

[ Region 2 Parameters ]
Region_Description = Mn for XPD                         
BEcenter(eV) = 643.000000
BEwidth(eV) = 15.000000
BEstep(eV) = 0.035938
Dwell_Time(sec) = 0.750000
N_o_scans = 1  
N_o_Channels = 417  
Excitation_Energy = 0.000000  
Scan_mode = 0  (DITHERED)

[ Region 1 Curve ]
BEcenter= 532.000 
BEwidth= -9.943  
Excitation= 1486.600
Time_p_channel= 192.000 
Size= 278
536.972  2.40000000e+01 
536.936  2.90000000e+01 
536.900  2.10000000e+01 
536.864  2.60000000e+01 
536.828  2.30000000e+01 
536.792  3.10000000e+01 
536.756  2.40000000e+01 
536.720  3.30000000e+01 
536.685  2.70000000e+01 
536.649  1.70000000e+01 
536.613  2.80000000e+01 
536.577  3.10000000e+01 
536.541  3.30000000e+01 
536.505  3.00000000e+01 
536.469  2.90000000e+01 
536.433  3.30000000e+01 
536.397  2.30000000e+01 
536.361  3.30000000e+01 
536.326  3.10000000e+01 
536.290  3.20000000e+01 
536.254  2.10000000e+01 
536.218  2.00000000e+01 
536.182  2.30000000e+01 
536.146  3.60000000e+01 
536.110  3.20000000e+01 
536.074  3.80000000e+01 
536.038  3.50000000e+01 
536.002  3.40000000e+01 
535.967  3.40000000e+01 
535.931  3.30000000e+01 
535.895  4.60000000e+01 
535.859  3.60000000e+01 
535.823  3.20000000e+01 
535.787  4.00000000e+01 
535.751  4.10000000e+01 
535.715  3.90000000e+01 
535.679  3.40000000e+01 
535.644  2.90000000e+01 
535.608  3.70000000e+01 
535.572  3.40000000e+01 
535.536  3.60000000e+01 
535.500  4.90000000e+01 
535.464  3.90000000e+01 
535.428  4.00000000e+01 
535.392  4.30000000e+01 
535.356  4.70000000e+01 
535.320  4.40000000e+01 
535.285  3.70000000e+01 
535.249  5.10000000e+01 
535.213  4.00000000e+01 
535.177  4.70000000e+01 
535.141  3.90000000e+01 
535.105  4.30000000e+01 
535.069  3.20000000e+01 
535.033  3.40000000e+01 
534.997  4.60000000e+01 
534.961  5.50000000e+01 
534.926  4.40000000e+01 
534.890  4.40000000e+01 
534.854  6.20000000e+01 
534.818  6.40000000e+01 
534.782  4.90000000e+01 
534.746  5.00000000e+01 
534.710  4.30000000e+01 
534.674  4.30000000e+01 
534.638  5.80000000e+01 
534.603  5.40000000e+01 
534.567  6.00000000e+01 
534.531  5.40000000e+01 
534.495  6.40000000e+01 
534.459  5.80000000e+01 
534.423  5.00000000e+01 
534.387  6.30000000e+01 
534.351  6.40000000e+01 
534.315  7.20000000e+01 
534.279  5.40000000e+01 
534.244  7.00000000e+01 
534.208  8.20000000e+01 
534.172  7.30000000e+01 
534.136  9.60000000e+01 
534.100  6.50000000e+01 
534.064  8.30000000e+01 
534.028  7.40000000e+01 
533.992  8.90000000e+01 
533.956  7.50000000e+01 
533.920  7.60000000e+01 
533.885  1.07000000e+02 
533.849  8.20000000e+01 
533.813  8.40000000e+01 
533.777  8.30000000e+01 
533.741  1.07000000e+02 
533.705  1.00000000e+02 
533.669  1.00000000e+02 
533.633  1.18000000e+02 
533.597  1.25000000e+02 
533.562  1.03000000e+02 
533.526  1.10000000e+02 
533.490  1.08000000e+02 
533.454  1.27000000e+02 
533.418  1.20000000e+02 
533.382  1.17000000e+02 
533.346  1.24000000e+02 
533.310  1.16000000e+02 
533.274  1.48000000e+02 
533.238  1.24000000e+02 
533.203  1.25000000e+02 
533.167  1.39000000e+02 
533.131  1.25000000e+02 
533.095  1.42000000e+02 
533.059  1.26000000e+02 
533.023  1.31000000e+02 
532.987  1.21000000e+02 
532.951  9.80000000e+01 
532.915  1.03000000e+02 
532.879  1.00000000e+02 
532.844  1.06000000e+02 
532.808  1.01000000e+02 
532.772  1.11000000e+02 
532.736  9.60000000e+01 
532.700  1.00000000e+02 
532.664  1.13000000e+02 
532.628  9.60000000e+01 
532.592  8.70000000e+01 
532.556  9.50000000e+01 
532.521  1.05000000e+02 
532.485  8.10000000e+01 
532.449  1.02000000e+02 
532.413  7.10000000e+01 
532.377  8.10000000e+01 
532.341  9.10000000e+01 
532.305  7.30000000e+01 
532.269  5.70000000e+01 
532.233  6.70000000e+01 
532.197  6.50000000e+01 
532.162  6.60000000e+01 
532.126  6.80000000e+01 
532.090  5.50000000e+01 
532.054  5.30000000e+01 
532.018  4.80000000e+01 
531.982  4.80000000e+01 
531.946  4.50000000e+01 
531.910  4.80000000e+01 
531.874  3.70000000e+01 
531.838  4.50000000e+01 
531.803  4.80000000e+01 
531.767  4.70000000e+01 
531.731  3.40000000e+01 
531.695  4.20000000e+01 
531.659  4.00000000e+01 
531.623  2.80000000e+01 
531.587  3.70000000e+01 
531.551  3.20000000e+01 
531.515  3.70000000e+01 
531.479  4.20000000e+01 
531.444  3.90000000e+01 
531.408  3.00000000e+01 
531.372  2.90000000e+01 
531.336  3.00000000e+01 
531.300  4.10000000e+01 
531.264  3.80000000e+01 
531.228  3.50000000e+01 
531.192  3.20000000e+01 
531.156  3.70000000e+01 
531.121  3.10000000e+01 
531.085  3.40000000e+01 
531.049  3.50000000e+01 
531.013  3.00000000e+01 
530.977  3.30000000e+01 
530.941  3.80000000e+01 
530.905  3.90000000e+01 
530.869  2.70000000e+01 
530.833  3.30000000e+01 
530.797  3.10000000e+01 
530.762  2.90000000e+01 
530.726  3.50000000e+01 
530.690  3.20000000e+01 
530.654  3.60000000e+01 
530.618  3.00000000e+01 
530.582  2.50000000e+01 
530.546  2.40000000e+01 
530.510  2.40000000e+01 
530.474  2.70000000e+01 
530.438  3.60000000e+01 
530.403  2.40000000e+01 
530.367  2.10000000e+01 
530.331  2.10000000e+01 
530.295  1.70000000e+01 
530.259  3.80000000e+01 
530.223  2.10000000e+01 
530.187  2.40000000e+01 
530.151  2.70000000e+01 
530.115  2.50000000e+01 
530.080  2.30000000e+01 
530.044  2.60000000e+01 
530.008  2.80000000e+01 
529.972  2.20000000e+01 
529.936  2.60000000e+01 
529.900  3.00000000e+01 
529.864  1.90000000e+01 
529.828  1.20000000e+01 
529.792  2.70000000e+01 
529.756  1.80000000e+01 
529.721  2.70000000e+01 
529.685  2.50000000e+01 
529.649  2.60000000e+01 
529.613  2.70000000e+01 
529.577  2.80000000e+01 
529.541  2.30000000e+01 
529.505  2.40000000e+01 
529.469  2.30000000e+01 
529.433  3.10000000e+01 
529.397  2.10000000e+01 
529.362  2.50000000e+01 
529.326  2.70000000e+01 
529.290  2.90000000e+01 
529.254  2.70000000e+01 
529.218  2.20000000e+01 
529.182  2.30000000e+01 
529.146  2.50000000e+01 
529.110  2.20000000e+01 
529.074  2.90000000e+01 
529.039  2.50000000e+01 
529.003  2.30000000e+01 
528.967  2.60000000e+01 
528.931  2.30000000e+01 
528.895  2.90000000e+01 
528.859  2.20000000e+01 
528.823  2.60000000e+01 
528.787  2.70000000e+01 
528.751  2.30000000e+01 
528.715  2.10000000e+01 
528.680  2.40000000e+01 
528.644  2.50000000e+01 
528.608  2.30000000e+01 
528.572  1.70000000e+01 
528.536  2.70000000e+01 
528.500  2.10000000e+01 
528.464  1.60000000e+01 
528.428  3.20000000e+01 
528.392  2.70000000e+01 
528.356  2.50000000e+01 
528.321  2.70000000e+01 
528.285  2.70000000e+01 
528.249  2.40000000e+01 
528.213  2.10000000e+01 
528.177  3.10000000e+01 
528.141  2.30000000e+01 
528.105  3.40000000e+01 
528.069  2.90000000e+01 
528.033  2.40000000e+01 
527.998  3.20000000e+01 
527.962  2.30000000e+01 
527.926  2.80000000e+01 
527.890  2.30000000e+01 
527.854  2.60000000e+01 
527.818  2.40000000e+01 
527.782  2.70000000e+01 
527.746  2.50000000e+01 
527.710  3.80000000e+01 
527.674  2.90000000e+01 
527.639  3.30000000e+01 
527.603  1.20000000e+01 
527.567  1.90000000e+01 
527.531  3.00000000e+01 
527.495  2.70000000e+01 
527.459  2.90000000e+01 
527.423  2.00000000e+01 
527.387  2.10000000e+01 
527.351  3.60000000e+01 
527.315  2.80000000e+01 
527.280  3.00000000e+01 
527.244  2.80000000e+01 
527.208  2.10000000e+01 
527.172  1.80000000e+01 
527.136  2.50000000e+01 
527.100  3.20000000e+01 
527.064  2.20000000e+01 
527.028  2.30000000e+01 
[ Region 2 Curve ]
BEcenter= 643.000 
BEwidth= -14.938 
Excitation= 1486.600
Time_p_channel= 192.000 
Size= 417
650.469  5.10000000e+01 
650.433  4.00000000e+01 
650.397  5.70000000e+01 
650.361  4.30000000e+01 
650.325  3.20000000e+01 
650.289  5.70000000e+01 
650.253  4.60000000e+01 
650.217  3.70000000e+01 
650.181  4.90000000e+01 
650.146  4.00000000e+01 
650.110  4.20000000e+01 
650.074  4.00000000e+01 
650.038  4.00000000e+01 
650.002  3.80000000e+01 
649.966  2.70000000e+01 
649.930  4.90000000e+01 
649.894  3.80000000e+01 
649.858  4.80000000e+01 
649.822  5.10000000e+01 
649.787  4.60000000e+01 
649.751  3.70000000e+01 
649.715  3.40000000e+01 
649.679  3.80000000e+01 
649.643  4.10000000e+01 
649.607  3.50000000e+01 
649.571  3.60000000e+01 
649.535  3.70000000e+01 
649.499  3.30000000e+01 
649.463  4.00000000e+01 
649.427  4.50000000e+01 
649.392  5.10000000e+01 
649.356  3.50000000e+01 
649.320  4.10000000e+01 
649.284  4.30000000e+01 
649.248  4.40000000e+01 
649.212  3.70000000e+01 
649.176  5.30000000e+01 
649.140  5.10000000e+01 
649.104  4.10000000e+01 
649.068  4.70000000e+01 
649.032  3.20000000e+01 
648.997  4.90000000e+01 
648.961  5.40000000e+01 
648.925  4.70000000e+01 
648.889  4.50000000e+01 
648.853  4.10000000e+01 
648.817  4.60000000e+01 
648.781  5.60000000e+01 
648.745  4.80000000e+01 
648.709  3.70000000e+01 
648.673  5.20000000e+01 
648.637  4.10000000e+01 
648.602  4.00000000e+01 
648.566  4.50000000e+01 
648.530  4.70000000e+01 
648.494  4.60000000e+01 
648.458  4.10000000e+01 
648.422  3.20000000e+01 
648.386  4.80000000e+01 
648.350  4.10000000e+01 
648.314  3.90000000e+01 
648.278  3.50000000e+01 
648.242  3.60000000e+01 
648.207  4.00000000e+01 
648.171  4.40000000e+01 
648.135  4.30000000e+01 
648.099  4.00000000e+01 
648.063  4.90000000e+01 
648.027  4.30000000e+01 
647.991  4.80000000e+01 
647.955  4.20000000e+01 
647.919  4.70000000e+01 
647.883  3.40000000e+01 
647.848  5.70000000e+01 
647.812  4.60000000e+01 
647.776  3.90000000e+01 
647.740  4.20000000e+01 
647.704  3.30000000e+01 
647.668  4.60000000e+01 
647.632  5.20000000e+01 
647.596  4.90000000e+01 
647.560  3.70000000e+01 
647.524  3.10000000e+01 
647.488  3.70000000e+01 
647.453  3.90000000e+01 
647.417  3.50000000e+01 
647.381  3.90000000e+01 
647.345  5.40000000e+01 
647.309  4.80000000e+01 
647.273  5.20000000e+01 
647.237  4.30000000e+01 
647.201  5.00000000e+01 
647.165  4.10000000e+01 
647.129  4.30000000e+01 
647.093  4.20000000e+01 
647.058  4.40000000e+01 
647.022  3.30000000e+01 
646.986  5.40000000e+01 
646.950  5.00000000e+01 
646.914  5.00000000e+01 
646.878  3.60000000e+01 
646.842  4.70000000e+01 
646.806  3.70000000e+01 
646.770  4.00000000e+01 
646.734  3.50000000e+01 
646.698  3.60000000e+01 
646.663  4.40000000e+01 
646.627  4.70000000e+01 
646.591  4.80000000e+01 
646.555  5.00000000e+01 
646.519  3.60000000e+01 
646.483  4.80000000e+01 
646.447  3.70000000e+01 
646.411  4.10000000e+01 
646.375  4.30000000e+01 
646.339  4.50000000e+01 
646.303  3.70000000e+01 
646.268  3.70000000e+01 
646.232  4.40000000e+01 
646.196  4.60000000e+01 
646.160  5.30000000e+01 
646.124  3.40000000e+01 
646.088  4.40000000e+01 
646.052  4.80000000e+01 
646.016  4.50000000e+01 
645.980  4.80000000e+01 
645.944  4.70000000e+01 
645.909  4.10000000e+01 
645.873  4.90000000e+01 
645.837  4.00000000e+01 
645.801  4.40000000e+01 
645.765  5.10000000e+01 
645.729  3.70000000e+01 
645.693  3.90000000e+01 
645.657  3.40000000e+01 
645.621  4.30000000e+01 
645.585  4.00000000e+01 
645.549  4.30000000e+01 
645.514  5.20000000e+01 
645.478  3.50000000e+01 
645.442  3.00000000e+01 
645.406  3.80000000e+01 
645.370  3.40000000e+01 
645.334  4.00000000e+01 
645.298  3.40000000e+01 
645.262  4.20000000e+01 
645.226  4.70000000e+01 
645.190  4.50000000e+01 
645.154  4.50000000e+01 
645.119  3.40000000e+01 
645.083  4.50000000e+01 
645.047  5.00000000e+01 
645.011  5.10000000e+01 
644.975  3.50000000e+01 
644.939  4.50000000e+01 
644.903  4.80000000e+01 
644.867  5.40000000e+01 
644.831  3.60000000e+01 
644.795  4.50000000e+01 
644.759  5.80000000e+01 
644.724  4.40000000e+01 
644.688  3.40000000e+01 
644.652  5.40000000e+01 
644.616  3.60000000e+01 
644.580  3.80000000e+01 
644.544  4.20000000e+01 
644.508  4.50000000e+01 
644.472  4.60000000e+01 
644.436  3.40000000e+01 
644.400  4.40000000e+01 
644.364  3.80000000e+01 
644.329  4.00000000e+01 
644.293  3.80000000e+01 
644.257  4.80000000e+01 
644.221  3.70000000e+01 
644.185  4.80000000e+01 
644.149  4.40000000e+01 
644.113  4.90000000e+01 
644.077  4.30000000e+01 
644.041  3.20000000e+01 
644.005  5.20000000e+01 
643.970  4.50000000e+01 
643.934  4.60000000e+01 
643.898  5.60000000e+01 
643.862  4.40000000e+01 
643.826  4.80000000e+01 
643.790  4.00000000e+01 
643.754  4.20000000e+01 
643.718  4.20000000e+01 
643.682  4.60000000e+01 
643.646  2.80000000e+01 
643.610  5.20000000e+01 
643.575  3.60000000e+01 
643.539  4.50000000e+01 
643.503  5.00000000e+01 
643.467  3.70000000e+01 
643.431  4.10000000e+01 
643.395  4.60000000e+01 
643.359  3.90000000e+01 
643.323  5.10000000e+01 
643.287  5.00000000e+01 
643.251  4.80000000e+01 
643.215  4.30000000e+01 
643.180  3.70000000e+01 
643.144  4.90000000e+01 
643.108  5.10000000e+01 
643.072  3.40000000e+01 
643.036  4.10000000e+01 
643.000  4.20000000e+01 
642.964  4.40000000e+01 
642.928  4.90000000e+01 
642.892  4.40000000e+01 
642.856  4.90000000e+01 
642.820  5.30000000e+01 
642.785  4.50000000e+01 
642.749  4.00000000e+01 
642.713  3.60000000e+01 
642.677  4.30000000e+01 
642.641  4.60000000e+01 
642.605  3.40000000e+01 
642.569  4.20000000e+01 
642.533  3.70000000e+01 
642.497  4.60000000e+01 
642.461  5.50000000e+01 
642.425  3.30000000e+01 
642.390  4.20000000e+01 
642.354  4.50000000e+01 
642.318  5.10000000e+01 
642.282  5.50000000e+01 
642.246  3.20000000e+01 
642.210  4.50000000e+01 
642.174  5.00000000e+01 
642.138  5.20000000e+01 
642.102  4.50000000e+01 
642.066  3.50000000e+01 
642.030  4.70000000e+01 
641.995  4.30000000e+01 
641.959  4.10000000e+01 
641.923  5.40000000e+01 
641.887  3.80000000e+01 
641.851  4.20000000e+01 
641.815  4.70000000e+01 
641.779  4.60000000e+01 
641.743  4.50000000e+01 
641.707  4.70000000e+01 
641.671  3.90000000e+01 
641.636  4.00000000e+01 
641.600  4.50000000e+01 
641.564  6.00000000e+01 
641.528  3.90000000e+01 
641.492  4.20000000e+01 
641.456  4.00000000e+01 
641.420  4.30000000e+01 
641.384  5.10000000e+01 
641.348  4.20000000e+01 
641.312  3.10000000e+01 
641.276  4.80000000e+01 
641.241  4.60000000e+01 
641.205  3.70000000e+01 
641.169  3.80000000e+01 
641.133  4.70000000e+01 
641.097  5.40000000e+01 
641.061  5.00000000e+01 
641.025  4.00000000e+01 
640.989  4.10000000e+01 
640.953  4.20000000e+01 
640.917  4.00000000e+01 
640.881  4.30000000e+01 
640.846  4.10000000e+01 
640.810  3.50000000e+01 
640.774  4.10000000e+01 
640.738  3.70000000e+01 
640.702  4.70000000e+01 
640.666  3.30000000e+01 
640.630  5.00000000e+01 
640.594  2.40000000e+01 
640.558  4.00000000e+01 
640.522  3.40000000e+01 
640.486  4.80000000e+01 
640.451  4.50000000e+01 
640.415  3.80000000e+01 
640.379  5.40000000e+01 
640.343  4.90000000e+01 
640.307  4.30000000e+01 
640.271  4.10000000e+01 
640.235  4.10000000e+01 
640.199  4.30000000e+01 
640.163  2.90000000e+01 
640.127  3.70000000e+01 
640.091  4.20000000e+01 
640.056  4.60000000e+01 
640.020  4.80000000e+01 
639.984  4.50000000e+01 
639.948  3.90000000e+01 
639.912  4.30000000e+01 
639.876  3.10000000e+01 
639.840  3.90000000e+01 
639.804  4.00000000e+01 
639.768  3.70000000e+01 
639.732  3.70000000e+01 
639.697  4.70000000e+01 
639.661  3.90000000e+01 
639.625  4.80000000e+01 
639.589  4.60000000e+01 
639.553  5.40000000e+01 
639.517  4.50000000e+01 
639.481  3.40000000e+01 
639.445  3.90000000e+01 
639.409  4.10000000e+01 
639.373  4.00000000e+01 
639.337  3.50000000e+01 
639.302  3.60000000e+01 
639.266  4.90000000e+01 
639.230  3.90000000e+01 
639.194  4.10000000e+01 
639.158  4.40000000e+01 
639.122  3.90000000e+01 
639.086  4.80000000e+01 
639.050  3.90000000e+01 
639.014  4.10000000e+01 
638.978  3.80000000e+01 
638.942  4.00000000e+01 
638.907  4.40000000e+01 
638.871  4.30000000e+01 
638.835  3.40000000e+01 
638.799  4.00000000e+01 
638.763  4.20000000e+01 
638.727  4.20000000e+01 
638.691  4.40000000e+01 
638.655  4.50000000e+01 
638.619  3.40000000e+01 
638.583  4.90000000e+01 
638.547  2.70000000e+01 
638.512  4.70000000e+01 
638.476  4.50000000e+01 
638.440  4.60000000e+01 
638.404  4.00000000e+01 
638.368  4.90000000e+01 
638.332  4.60000000e+01 
638.296  3.00000000e+01 
638.260  4.80000000e+01 
638.224  4.50000000e+01 
638.188  3.90000000e+01 
638.152  3.90000000e+01 
638.117  4.50000000e+01 
638.081  5.40000000e+01 
638.045  5.60000000e+01 
638.009  4.80000000e+01 
637.973  4.70000000e+01 
637.937  4.10000000e+01 
637.901  3.80000000e+01 
637.865  4.10000000e+01 
637.829  4.80000000e+01 
637.793  3.30000000e+01 
637.758  4.40000000e+01 
637.722  5.30000000e+01 
637.686  4.20000000e+01 
637.650  3.60000000e+01 
637.614  3.90000000e+01 
637.578  3.90000000e+01 
637.542  3.50000000e+01 
637.506  3.80000000e+01 
637.470  4.70000000e+01 
637.434  4.30000000e+01 
637.398  3.70000000e+01 
637.363  3.10000000e+01 
637.327  3.10000000e+01 
637.291  4.50000000e+01 
637.255  4.30000000e+01 
637.219  3.20000000e+01 
637.183  5.00000000e+01 
637.147  4.50000000e+01 
637.111  3.00000000e+01 
637.075  3.60000000e+01 
637.039  3.80000000e+01 
637.003  4.20000000e+01 
636.968  3.90000000e+01 
636.932  3.60000000e+01 
636.896  4.00000000e+01 
636.860  3.40000000e+01 
636.824  4.90000000e+01 
636.788  4.00000000e+01 
636.752  3.40000000e+01 
636.716  4.30000000e+01 
636.680  4.00000000e+01 
636.644  4.60000000e+01 
636.608  4.20000000e+01 
636.573  3.80000000e+01 
636.537  4.40000000e+01 
636.501  4.00000000e+01 
636.465  4.70000000e+01 
636.429  4.90000000e+01 
636.393  5.00000000e+01 
636.357  4.10000000e+01 
636.321  4.90000000e+01 
636.285  4.30000000e+01 
636.249  4.10000000e+01 
636.213  2.80000000e+01 
636.178  3.80000000e+01 
636.142  2.90000000e+01 
636.106  3.80000000e+01 
636.070  5.20000000e+01 
636.034  4.50000000e+01 
635.998  3.90000000e+01 
635.962  4.80000000e+01 
635.926  4.60000000e+01 
635.890  4.20000000e+01 
635.854  3.80000000e+01 
635.819  4.50000000e+01 
635.783  4.00000000e+01 
635.747  3.50000000e+01 
635.711  3.80000000e+01 
635.675  4.60000000e+01 
635.639  3.80000000e+01 
635.603  4.50000000e+01 
635.567  4.70000000e+01 
635.531  5.70000000e+01 
