[ Experiment Parameters ]
Experiment Description= C1s mono= 7.0, take-off = -40,-30...40 
Number_of_Regions_in_Experiment= 9 

Original_File_name= c:\alexesca\data\97070902.xps 
Instrument= ESCA-West
Date= 07-09-1997
Time=  16:10:08

[ Region 1 Parameters ]
Region_Description = C 1s    dithered                           
BEcenter(eV) = 284.000000
BEwidth(eV) = 10.000000
BEstep(eV) = 0.071875
Dwell_Time(sec) = 1.000000
N_o_scans = 1  
N_o_Channels = 139  
Excitation_Energy = 0.000000  
Scan_mode = 0  (DITHERED)

[ Region 2 Parameters ]
Region_Description = C 1s    dithered                           
BEcenter(eV) = 284.000000
BEwidth(eV) = 10.000000
BEstep(eV) = 0.071875
Dwell_Time(sec) = 1.000000
N_o_scans = 1  
N_o_Channels = 139  
Excitation_Energy = 0.000000  
Scan_mode = 0  (DITHERED)

[ Region 3 Parameters ]
Region_Description = C 1s    dithered                           
BEcenter(eV) = 284.000000
BEwidth(eV) = 10.000000
BEstep(eV) = 0.071875
Dwell_Time(sec) = 1.000000
N_o_scans = 1  
N_o_Channels = 139  
Excitation_Energy = 0.000000  
Scan_mode = 0  (DITHERED)

[ Region 4 Parameters ]
Region_Description = C 1s    dithered                           
BEcenter(eV) = 284.000000
BEwidth(eV) = 10.000000
BEstep(eV) = 0.071875
Dwell_Time(sec) = 1.000000
N_o_scans = 1  
N_o_Channels = 139  
Excitation_Energy = 0.000000  
Scan_mode = 0  (DITHERED)

[ Region 5 Parameters ]
Region_Description = C 1s    dithered                           
BEcenter(eV) = 284.000000
BEwidth(eV) = 10.000000
BEstep(eV) = 0.071875
Dwell_Time(sec) = 1.000000
N_o_scans = 1  
N_o_Channels = 139  
Excitation_Energy = 0.000000  
Scan_mode = 0  (DITHERED)

[ Region 6 Parameters ]
Region_Description = C 1s    dithered                           
BEcenter(eV) = 284.000000
BEwidth(eV) = 10.000000
BEstep(eV) = 0.071875
Dwell_Time(sec) = 1.000000
N_o_scans = 1  
N_o_Channels = 139  
Excitation_Energy = 0.000000  
Scan_mode = 0  (DITHERED)

[ Region 7 Parameters ]
Region_Description = C 1s    dithered                           
BEcenter(eV) = 284.000000
BEwidth(eV) = 10.000000
BEstep(eV) = 0.071875
Dwell_Time(sec) = 1.000000
N_o_scans = 1  
N_o_Channels = 139  
Excitation_Energy = 0.000000  
Scan_mode = 0  (DITHERED)

[ Region 8 Parameters ]
Region_Description = C 1s    dithered                           
BEcenter(eV) = 284.000000
BEwidth(eV) = 10.000000
BEstep(eV) = 0.071875
Dwell_Time(sec) = 1.000000
N_o_scans = 1  
N_o_Channels = 139  
Excitation_Energy = 0.000000  
Scan_mode = 0  (DITHERED)

[ Region 9 Parameters ]
Region_Description = C 1s    dithered                           
BEcenter(eV) = 284.000000
BEwidth(eV) = 10.000000
BEstep(eV) = 0.071875
Dwell_Time(sec) = 1.000000
N_o_scans = 1  
N_o_Channels = 139  
Excitation_Energy = 0.000000  
Scan_mode = 0  (DITHERED)

[ Region 1 Curve ]
BEcenter= 284.000 
BEwidth= -9.898  
Excitation= 1486.600
Time_p_channel= 512.000 
Size= 139
288.949  4.16000000e+02 
288.877  3.89000000e+02 
288.806  4.16000000e+02 
288.734  3.99000000e+02 
288.662  4.40000000e+02 
288.591  4.30000000e+02 
288.519  4.05000000e+02 
288.447  4.34000000e+02 
288.375  4.08000000e+02 
288.304  4.10000000e+02 
288.232  3.92000000e+02 
288.160  4.47000000e+02 
288.088  4.18000000e+02 
288.017  4.39000000e+02 
287.945  4.15000000e+02 
287.873  4.24000000e+02 
287.802  4.47000000e+02 
287.730  4.23000000e+02 
287.658  4.42000000e+02 
287.586  4.45000000e+02 
287.515  4.40000000e+02 
287.443  4.96000000e+02 
287.371  4.63000000e+02 
287.299  5.29000000e+02 
287.228  5.10000000e+02 
287.156  5.04000000e+02 
287.084  4.93000000e+02 
287.013  5.21000000e+02 
286.941  5.13000000e+02 
286.869  5.13000000e+02 
286.797  5.06000000e+02 
286.726  5.51000000e+02 
286.654  6.01000000e+02 
286.582  5.72000000e+02 
286.510  5.85000000e+02 
286.439  5.98000000e+02 
286.367  5.82000000e+02 
286.295  6.18000000e+02 
286.224  6.08000000e+02 
286.152  6.18000000e+02 
286.080  7.23000000e+02 
286.008  7.08000000e+02 
285.937  6.81000000e+02 
285.865  7.31000000e+02 
285.793  7.30000000e+02 
285.721  7.33000000e+02 
285.650  8.03000000e+02 
285.578  8.12000000e+02 
285.506  7.94000000e+02 
285.435  8.05000000e+02 
285.363  8.47000000e+02 
285.291  8.60000000e+02 
285.219  8.44000000e+02 
285.148  8.25000000e+02 
285.076  8.65000000e+02 
285.004  8.42000000e+02 
284.932  8.77000000e+02 
284.861  8.34000000e+02 
284.789  8.82000000e+02 
284.717  7.94000000e+02 
284.646  8.27000000e+02 
284.574  7.51000000e+02 
284.502  7.54000000e+02 
284.430  7.27000000e+02 
284.359  7.36000000e+02 
284.287  6.58000000e+02 
284.215  6.71000000e+02 
284.143  5.95000000e+02 
284.072  5.97000000e+02 
284.000  5.51000000e+02 
283.928  5.31000000e+02 
283.857  4.85000000e+02 
283.785  5.51000000e+02 
283.713  4.27000000e+02 
283.641  4.73000000e+02 
283.570  4.42000000e+02 
283.498  4.22000000e+02 
283.426  3.72000000e+02 
283.354  4.27000000e+02 
283.283  3.89000000e+02 
283.211  3.93000000e+02 
283.139  3.62000000e+02 
283.068  3.85000000e+02 
282.996  3.98000000e+02 
282.924  3.81000000e+02 
282.852  3.64000000e+02 
282.781  3.65000000e+02 
282.709  3.76000000e+02 
282.637  3.97000000e+02 
282.565  3.67000000e+02 
282.494  3.64000000e+02 
282.422  3.69000000e+02 
282.350  3.87000000e+02 
282.279  3.97000000e+02 
282.207  3.48000000e+02 
282.135  3.85000000e+02 
282.063  3.72000000e+02 
281.992  3.34000000e+02 
281.920  3.40000000e+02 
281.848  3.81000000e+02 
281.776  3.71000000e+02 
281.705  3.54000000e+02 
281.633  3.77000000e+02 
281.561  3.89000000e+02 
281.490  3.67000000e+02 
281.418  3.76000000e+02 
281.346  3.94000000e+02 
281.274  3.56000000e+02 
281.203  3.65000000e+02 
281.131  3.92000000e+02 
281.059  3.58000000e+02 
280.987  3.81000000e+02 
280.916  3.73000000e+02 
280.844  3.44000000e+02 
280.772  3.74000000e+02 
280.701  3.74000000e+02 
280.629  3.62000000e+02 
280.557  3.41000000e+02 
280.485  3.86000000e+02 
280.414  3.42000000e+02 
280.342  3.61000000e+02 
280.270  3.56000000e+02 
280.198  3.89000000e+02 
280.127  3.60000000e+02 
280.055  3.47000000e+02 
279.983  3.90000000e+02 
279.912  3.45000000e+02 
279.840  3.54000000e+02 
279.768  3.55000000e+02 
279.696  3.51000000e+02 
279.625  3.93000000e+02 
279.553  3.79000000e+02 
279.481  3.86000000e+02 
279.409  3.37000000e+02 
279.338  3.47000000e+02 
279.266  3.99000000e+02 
279.194  3.59000000e+02 
279.123  3.65000000e+02 
279.051  3.60000000e+02 
[ Region 2 Curve ]
BEcenter= 284.000 
BEwidth= -9.898  
Excitation= 1486.600
Time_p_channel= 512.000 
Size= 139
288.949  7.10000000e+02 
288.877  7.45000000e+02 
288.806  7.20000000e+02 
288.734  8.10000000e+02 
288.662  7.63000000e+02 
288.591  7.89000000e+02 
288.519  7.85000000e+02 
288.447  7.86000000e+02 
288.375  7.69000000e+02 
288.304  8.18000000e+02 
288.232  7.66000000e+02 
288.160  7.81000000e+02 
288.088  7.79000000e+02 
288.017  8.19000000e+02 
287.945  7.58000000e+02 
287.873  7.58000000e+02 
287.802  7.65000000e+02 
287.730  8.10000000e+02 
287.658  8.01000000e+02 
287.586  8.34000000e+02 
287.515  8.37000000e+02 
287.443  8.36000000e+02 
287.371  8.52000000e+02 
287.299  8.51000000e+02 
287.228  8.89000000e+02 
287.156  9.00000000e+02 
287.084  9.36000000e+02 
287.013  8.98000000e+02 
286.941  9.51000000e+02 
286.869  9.82000000e+02 
286.797  9.84000000e+02 
286.726  1.04000000e+03 
286.654  1.02500000e+03 
286.582  1.03500000e+03 
286.510  1.06800000e+03 
286.439  1.07500000e+03 
286.367  1.12700000e+03 
286.295  1.16700000e+03 
286.224  1.13000000e+03 
286.152  1.15600000e+03 
286.080  1.20700000e+03 
286.008  1.22100000e+03 
285.937  1.22800000e+03 
285.865  1.28900000e+03 
285.793  1.32600000e+03 
285.721  1.30400000e+03 
285.650  1.39500000e+03 
285.578  1.40900000e+03 
285.506  1.45400000e+03 
285.435  1.51200000e+03 
285.363  1.50200000e+03 
285.291  1.49400000e+03 
285.219  1.57600000e+03 
285.148  1.58300000e+03 
285.076  1.58300000e+03 
285.004  1.61400000e+03 
284.932  1.54700000e+03 
284.861  1.55100000e+03 
284.789  1.46800000e+03 
284.717  1.47900000e+03 
284.646  1.50400000e+03 
284.574  1.45100000e+03 
284.502  1.42600000e+03 
284.430  1.32100000e+03 
284.359  1.26300000e+03 
284.287  1.20600000e+03 
284.215  1.10900000e+03 
284.143  1.12400000e+03 
284.072  9.67000000e+02 
284.000  9.98000000e+02 
283.928  9.54000000e+02 
283.857  9.35000000e+02 
283.785  9.02000000e+02 
283.713  8.60000000e+02 
283.641  7.85000000e+02 
283.570  7.77000000e+02 
283.498  7.51000000e+02 
283.426  7.68000000e+02 
283.354  7.22000000e+02 
283.283  7.47000000e+02 
283.211  6.72000000e+02 
283.139  7.30000000e+02 
283.068  6.56000000e+02 
282.996  7.20000000e+02 
282.924  7.11000000e+02 
282.852  7.31000000e+02 
282.781  7.01000000e+02 
282.709  7.10000000e+02 
282.637  6.74000000e+02 
282.565  6.76000000e+02 
282.494  7.00000000e+02 
282.422  7.51000000e+02 
282.350  6.20000000e+02 
282.279  7.03000000e+02 
282.207  7.04000000e+02 
282.135  6.82000000e+02 
282.063  7.22000000e+02 
281.992  6.87000000e+02 
281.920  7.13000000e+02 
281.848  6.63000000e+02 
281.776  6.72000000e+02 
281.705  6.88000000e+02 
281.633  7.10000000e+02 
281.561  6.90000000e+02 
281.490  6.97000000e+02 
281.418  7.03000000e+02 
281.346  6.77000000e+02 
281.274  7.41000000e+02 
281.203  7.32000000e+02 
281.131  6.51000000e+02 
281.059  6.88000000e+02 
280.987  6.49000000e+02 
280.916  6.40000000e+02 
280.844  6.86000000e+02 
280.772  6.69000000e+02 
280.701  7.09000000e+02 
280.629  6.89000000e+02 
280.557  6.64000000e+02 
280.485  6.73000000e+02 
280.414  7.07000000e+02 
280.342  6.99000000e+02 
280.270  6.91000000e+02 
280.198  6.58000000e+02 
280.127  6.74000000e+02 
280.055  6.34000000e+02 
279.983  6.77000000e+02 
279.912  6.67000000e+02 
279.840  6.68000000e+02 
279.768  6.37000000e+02 
279.696  6.62000000e+02 
279.625  6.94000000e+02 
279.553  6.67000000e+02 
279.481  7.02000000e+02 
279.409  6.69000000e+02 
279.338  6.73000000e+02 
279.266  6.64000000e+02 
279.194  6.48000000e+02 
279.123  6.62000000e+02 
279.051  6.68000000e+02 
[ Region 3 Curve ]
BEcenter= 284.000 
BEwidth= -9.898  
Excitation= 1486.600
Time_p_channel= 512.000 
Size= 139
288.949  1.12100000e+03 
288.877  1.13000000e+03 
288.806  1.11100000e+03 
288.734  1.09300000e+03 
288.662  1.08900000e+03 
288.591  1.13200000e+03 
288.519  1.11800000e+03 
288.447  1.06500000e+03 
288.375  1.13100000e+03 
288.304  1.12000000e+03 
288.232  1.12500000e+03 
288.160  1.12100000e+03 
288.088  1.16400000e+03 
288.017  1.11600000e+03 
287.945  1.16900000e+03 
287.873  1.13000000e+03 
287.802  1.15600000e+03 
287.730  1.23000000e+03 
287.658  1.15200000e+03 
287.586  1.21700000e+03 
287.515  1.16400000e+03 
287.443  1.24500000e+03 
287.371  1.24100000e+03 
287.299  1.21400000e+03 
287.228  1.31400000e+03 
287.156  1.29400000e+03 
287.084  1.33200000e+03 
287.013  1.38300000e+03 
286.941  1.37500000e+03 
286.869  1.42100000e+03 
286.797  1.45400000e+03 
286.726  1.44800000e+03 
286.654  1.55400000e+03 
286.582  1.55800000e+03 
286.510  1.53600000e+03 
286.439  1.65200000e+03 
286.367  1.60600000e+03 
286.295  1.74600000e+03 
286.224  1.65200000e+03 
286.152  1.60100000e+03 
286.080  1.72400000e+03 
286.008  1.77900000e+03 
285.937  1.82500000e+03 
285.865  1.82200000e+03 
285.793  1.89500000e+03 
285.721  1.86100000e+03 
285.650  1.97500000e+03 
285.578  2.10600000e+03 
285.506  2.12200000e+03 
285.435  2.15000000e+03 
285.363  2.17500000e+03 
285.291  2.15600000e+03 
285.219  2.30800000e+03 
285.148  2.13900000e+03 
285.076  2.23100000e+03 
285.004  2.18400000e+03 
284.932  2.23000000e+03 
284.861  2.16200000e+03 
284.789  2.10800000e+03 
284.717  2.11600000e+03 
284.646  1.98300000e+03 
284.574  1.89400000e+03 
284.502  1.86500000e+03 
284.430  1.83300000e+03 
284.359  1.73100000e+03 
284.287  1.62500000e+03 
284.215  1.64500000e+03 
284.143  1.52700000e+03 
284.072  1.49700000e+03 
284.000  1.31900000e+03 
283.928  1.20000000e+03 
283.857  1.23100000e+03 
283.785  1.27300000e+03 
283.713  1.17900000e+03 
283.641  1.15900000e+03 
283.570  1.12000000e+03 
283.498  1.10200000e+03 
283.426  1.12600000e+03 
283.354  1.06900000e+03 
283.283  9.97000000e+02 
283.211  1.01700000e+03 
283.139  1.03400000e+03 
283.068  9.80000000e+02 
282.996  9.97000000e+02 
282.924  9.99000000e+02 
282.852  1.00400000e+03 
282.781  9.73000000e+02 
282.709  1.05800000e+03 
282.637  1.04000000e+03 
282.565  1.04000000e+03 
282.494  9.84000000e+02 
282.422  9.83000000e+02 
282.350  9.93000000e+02 
282.279  1.02800000e+03 
282.207  1.01500000e+03 
282.135  1.01100000e+03 
282.063  1.00700000e+03 
281.992  1.04100000e+03 
281.920  1.02400000e+03 
281.848  1.05100000e+03 
281.776  1.05300000e+03 
281.705  1.01500000e+03 
281.633  9.72000000e+02 
281.561  1.03500000e+03 
281.490  1.03000000e+03 
281.418  9.98000000e+02 
281.346  1.01400000e+03 
281.274  1.00700000e+03 
281.203  9.96000000e+02 
281.131  1.04000000e+03 
281.059  9.93000000e+02 
280.987  1.03800000e+03 
280.916  1.03000000e+03 
280.844  9.70000000e+02 
280.772  9.99000000e+02 
280.701  9.69000000e+02 
280.629  1.01800000e+03 
280.557  9.97000000e+02 
280.485  1.04200000e+03 
280.414  1.01300000e+03 
280.342  1.02500000e+03 
280.270  1.01500000e+03 
280.198  1.02700000e+03 
280.127  1.00400000e+03 
280.055  9.91000000e+02 
279.983  1.03600000e+03 
279.912  1.02400000e+03 
279.840  1.01600000e+03 
279.768  9.49000000e+02 
279.696  1.04700000e+03 
279.625  9.79000000e+02 
279.553  1.03400000e+03 
279.481  1.02700000e+03 
279.409  9.72000000e+02 
279.338  1.01000000e+03 
279.266  1.04200000e+03 
279.194  9.37000000e+02 
279.123  9.64000000e+02 
279.051  1.03500000e+03 
[ Region 4 Curve ]
BEcenter= 284.000 
BEwidth= -9.898  
Excitation= 1486.600
Time_p_channel= 512.000 
Size= 139
288.949  1.48800000e+03 
288.877  1.46100000e+03 
288.806  1.61300000e+03 
288.734  1.48700000e+03 
288.662  1.45600000e+03 
288.591  1.50900000e+03 
288.519  1.44000000e+03 
288.447  1.53400000e+03 
288.375  1.43800000e+03 
288.304  1.52200000e+03 
288.232  1.56000000e+03 
288.160  1.51400000e+03 
288.088  1.48100000e+03 
288.017  1.42200000e+03 
287.945  1.60300000e+03 
287.873  1.52100000e+03 
287.802  1.62000000e+03 
287.730  1.55900000e+03 
287.658  1.62100000e+03 
287.586  1.63500000e+03 
287.515  1.67600000e+03 
287.443  1.66800000e+03 
287.371  1.73000000e+03 
287.299  1.73100000e+03 
287.228  1.74000000e+03 
287.156  1.79700000e+03 
287.084  1.84600000e+03 
287.013  1.85500000e+03 
286.941  1.88800000e+03 
286.869  2.00800000e+03 
286.797  1.90000000e+03 
286.726  2.02500000e+03 
286.654  2.00000000e+03 
286.582  2.20200000e+03 
286.510  2.20100000e+03 
286.439  2.13200000e+03 
286.367  2.14300000e+03 
286.295  2.23200000e+03 
286.224  2.20000000e+03 
286.152  2.28300000e+03 
286.080  2.33400000e+03 
286.008  2.39500000e+03 
285.937  2.47800000e+03 
285.865  2.57400000e+03 
285.793  2.58100000e+03 
285.721  2.64300000e+03 
285.650  2.63300000e+03 
285.578  2.67700000e+03 
285.506  2.82100000e+03 
285.435  2.79100000e+03 
285.363  2.82900000e+03 
285.291  2.79700000e+03 
285.219  2.83300000e+03 
285.148  2.89800000e+03 
285.076  2.85800000e+03 
285.004  2.82000000e+03 
284.932  2.83200000e+03 
284.861  2.74400000e+03 
284.789  2.63600000e+03 
284.717  2.51300000e+03 
284.646  2.63000000e+03 
284.574  2.48900000e+03 
284.502  2.30700000e+03 
284.430  2.21700000e+03 
284.359  2.00900000e+03 
284.287  2.05100000e+03 
284.215  1.97000000e+03 
284.143  1.87400000e+03 
284.072  1.81500000e+03 
284.000  1.71400000e+03 
283.928  1.64600000e+03 
283.857  1.58500000e+03 
283.785  1.50300000e+03 
283.713  1.55200000e+03 
283.641  1.54600000e+03 
283.570  1.52400000e+03 
283.498  1.42900000e+03 
283.426  1.43600000e+03 
283.354  1.41500000e+03 
283.283  1.35400000e+03 
283.211  1.41800000e+03 
283.139  1.46900000e+03 
283.068  1.39000000e+03 
282.996  1.42600000e+03 
282.924  1.36900000e+03 
282.852  1.43400000e+03 
282.781  1.37400000e+03 
282.709  1.46100000e+03 
282.637  1.39400000e+03 
282.565  1.37800000e+03 
282.494  1.36100000e+03 
282.422  1.34700000e+03 
282.350  1.32900000e+03 
282.279  1.41100000e+03 
282.207  1.41200000e+03 
282.135  1.30700000e+03 
282.063  1.36400000e+03 
281.992  1.35800000e+03 
281.920  1.33200000e+03 
281.848  1.34000000e+03 
281.776  1.36800000e+03 
281.705  1.30000000e+03 
281.633  1.39700000e+03 
281.561  1.38900000e+03 
281.490  1.37400000e+03 
281.418  1.34900000e+03 
281.346  1.37100000e+03 
281.274  1.34800000e+03 
281.203  1.39500000e+03 
281.131  1.44100000e+03 
281.059  1.35300000e+03 
280.987  1.38900000e+03 
280.916  1.36400000e+03 
280.844  1.28000000e+03 
280.772  1.38000000e+03 
280.701  1.32700000e+03 
280.629  1.35600000e+03 
280.557  1.35900000e+03 
280.485  1.39200000e+03 
280.414  1.35300000e+03 
280.342  1.32900000e+03 
280.270  1.39100000e+03 
280.198  1.33600000e+03 
280.127  1.33400000e+03 
280.055  1.32000000e+03 
279.983  1.44400000e+03 
279.912  1.39600000e+03 
279.840  1.36900000e+03 
279.768  1.36700000e+03 
279.696  1.38400000e+03 
279.625  1.35300000e+03 
279.553  1.32000000e+03 
279.481  1.41100000e+03 
279.409  1.37100000e+03 
279.338  1.32100000e+03 
279.266  1.28900000e+03 
279.194  1.36300000e+03 
279.123  1.31300000e+03 
279.051  1.39700000e+03 
[ Region 5 Curve ]
BEcenter= 284.000 
BEwidth= -9.898  
Excitation= 1486.600
Time_p_channel= 512.000 
Size= 139
288.949  1.81400000e+03 
288.877  1.80300000e+03 
288.806  1.86900000e+03 
288.734  1.81700000e+03 
288.662  1.83800000e+03 
288.591  1.81600000e+03 
288.519  1.81300000e+03 
288.447  1.80800000e+03 
288.375  1.79700000e+03 
288.304  1.81100000e+03 
288.232  1.89400000e+03 
288.160  1.86300000e+03 
288.088  1.87700000e+03 
288.017  1.91600000e+03 
287.945  1.87300000e+03 
287.873  1.96500000e+03 
287.802  1.88900000e+03 
287.730  1.85100000e+03 
287.658  2.02900000e+03 
287.586  2.05100000e+03 
287.515  1.99000000e+03 
287.443  2.04100000e+03 
287.371  2.14800000e+03 
287.299  2.14400000e+03 
287.228  2.16100000e+03 
287.156  2.17900000e+03 
287.084  2.26700000e+03 
287.013  2.24700000e+03 
286.941  2.27700000e+03 
286.869  2.29800000e+03 
286.797  2.33800000e+03 
286.726  2.32900000e+03 
286.654  2.53100000e+03 
286.582  2.53800000e+03 
286.510  2.56400000e+03 
286.439  2.57800000e+03 
286.367  2.58600000e+03 
286.295  2.65700000e+03 
286.224  2.67400000e+03 
286.152  2.80200000e+03 
286.080  2.78400000e+03 
286.008  2.92500000e+03 
285.937  3.05700000e+03 
285.865  3.05000000e+03 
285.793  3.08000000e+03 
285.721  3.07200000e+03 
285.650  3.23200000e+03 
285.578  3.17800000e+03 
285.506  3.25400000e+03 
285.435  3.42300000e+03 
285.363  3.45800000e+03 
285.291  3.20900000e+03 
285.219  3.40300000e+03 
285.148  3.42300000e+03 
285.076  3.28800000e+03 
285.004  3.43000000e+03 
284.932  3.30100000e+03 
284.861  3.33600000e+03 
284.789  3.19200000e+03 
284.717  3.12100000e+03 
284.646  3.09800000e+03 
284.574  2.95300000e+03 
284.502  2.89200000e+03 
284.430  2.70400000e+03 
284.359  2.56700000e+03 
284.287  2.55900000e+03 
284.215  2.37000000e+03 
284.143  2.34800000e+03 
284.072  2.20400000e+03 
284.000  2.16600000e+03 
283.928  1.98100000e+03 
283.857  2.00800000e+03 
283.785  1.93600000e+03 
283.713  1.84700000e+03 
283.641  1.86300000e+03 
283.570  1.90900000e+03 
283.498  1.78500000e+03 
283.426  1.74000000e+03 
283.354  1.79000000e+03 
283.283  1.75900000e+03 
283.211  1.76400000e+03 
283.139  1.67900000e+03 
283.068  1.74700000e+03 
282.996  1.75300000e+03 
282.924  1.77300000e+03 
282.852  1.70400000e+03 
282.781  1.72000000e+03 
282.709  1.69100000e+03 
282.637  1.65900000e+03 
282.565  1.71800000e+03 
282.494  1.62400000e+03 
282.422  1.59900000e+03 
282.350  1.72900000e+03 
282.279  1.66800000e+03 
282.207  1.61200000e+03 
282.135  1.76700000e+03 
282.063  1.67600000e+03 
281.992  1.74600000e+03 
281.920  1.61500000e+03 
281.848  1.71600000e+03 
281.776  1.67700000e+03 
281.705  1.61500000e+03 
281.633  1.66500000e+03 
281.561  1.68200000e+03 
281.490  1.66700000e+03 
281.418  1.62900000e+03 
281.346  1.66000000e+03 
281.274  1.70100000e+03 
281.203  1.67200000e+03 
281.131  1.72200000e+03 
281.059  1.75000000e+03 
280.987  1.72600000e+03 
280.916  1.74000000e+03 
280.844  1.69000000e+03 
280.772  1.71800000e+03 
280.701  1.67800000e+03 
280.629  1.68400000e+03 
280.557  1.69700000e+03 
280.485  1.68200000e+03 
280.414  1.66000000e+03 
280.342  1.70900000e+03 
280.270  1.74100000e+03 
280.198  1.68600000e+03 
280.127  1.63100000e+03 
280.055  1.67200000e+03 
279.983  1.74800000e+03 
279.912  1.63600000e+03 
279.840  1.70300000e+03 
279.768  1.75400000e+03 
279.696  1.70200000e+03 
279.625  1.70300000e+03 
279.553  1.74600000e+03 
279.481  1.69800000e+03 
279.409  1.69300000e+03 
279.338  1.68500000e+03 
279.266  1.65800000e+03 
279.194  1.66400000e+03 
279.123  1.60100000e+03 
279.051  1.63700000e+03 
[ Region 6 Curve ]
BEcenter= 284.000 
BEwidth= -9.898  
Excitation= 1486.600
Time_p_channel= 512.000 
Size= 139
288.949  2.24000000e+03 
288.877  2.15100000e+03 
288.806  2.21800000e+03 
288.734  2.23900000e+03 
288.662  2.15100000e+03 
288.591  2.18800000e+03 
288.519  2.19200000e+03 
288.447  2.26000000e+03 
288.375  2.18500000e+03 
288.304  2.26500000e+03 
288.232  2.22200000e+03 
288.160  2.17600000e+03 
288.088  2.32000000e+03 
288.017  2.27000000e+03 
287.945  2.24700000e+03 
287.873  2.29600000e+03 
287.802  2.27700000e+03 
287.730  2.35200000e+03 
287.658  2.37400000e+03 
287.586  2.44200000e+03 
287.515  2.42100000e+03 
287.443  2.54000000e+03 
287.371  2.43400000e+03 
287.299  2.53800000e+03 
287.228  2.55400000e+03 
287.156  2.51100000e+03 
287.084  2.59800000e+03 
287.013  2.73200000e+03 
286.941  2.79100000e+03 
286.869  2.72400000e+03 
286.797  2.85600000e+03 
286.726  2.92600000e+03 
286.654  2.84800000e+03 
286.582  3.04400000e+03 
286.510  3.01000000e+03 
286.439  3.07800000e+03 
286.367  3.11700000e+03 
286.295  3.11100000e+03 
286.224  3.19000000e+03 
286.152  3.25400000e+03 
286.080  3.31400000e+03 
286.008  3.32600000e+03 
285.937  3.45600000e+03 
285.865  3.62000000e+03 
285.793  3.62200000e+03 
285.721  3.65800000e+03 
285.650  3.61200000e+03 
285.578  3.74700000e+03 
285.506  3.92100000e+03 
285.435  3.93200000e+03 
285.363  3.88300000e+03 
285.291  3.94300000e+03 
285.219  3.94900000e+03 
285.148  4.09800000e+03 
285.076  3.80900000e+03 
285.004  3.98700000e+03 
284.932  3.86000000e+03 
284.861  3.77600000e+03 
284.789  3.71000000e+03 
284.717  3.79500000e+03 
284.646  3.65500000e+03 
284.574  3.53400000e+03 
284.502  3.53400000e+03 
284.430  3.41700000e+03 
284.359  3.26300000e+03 
284.287  3.14000000e+03 
284.215  3.00700000e+03 
284.143  2.89300000e+03 
284.072  2.74200000e+03 
284.000  2.68100000e+03 
283.928  2.58200000e+03 
283.857  2.55200000e+03 
283.785  2.39000000e+03 
283.713  2.26200000e+03 
283.641  2.30700000e+03 
283.570  2.30400000e+03 
283.498  2.17400000e+03 
283.426  2.06600000e+03 
283.354  2.16300000e+03 
283.283  2.07600000e+03 
283.211  2.14500000e+03 
283.139  2.04200000e+03 
283.068  2.07600000e+03 
282.996  2.01300000e+03 
282.924  2.04300000e+03 
282.852  2.13600000e+03 
282.781  2.08800000e+03 
282.709  2.10600000e+03 
282.637  2.03800000e+03 
282.565  2.00600000e+03 
282.494  1.99700000e+03 
282.422  2.03000000e+03 
282.350  2.10500000e+03 
282.279  2.00600000e+03 
282.207  1.91300000e+03 
282.135  2.01800000e+03 
282.063  2.00400000e+03 
281.992  2.05400000e+03 
281.920  1.99800000e+03 
281.848  2.01200000e+03 
281.776  2.03000000e+03 
281.705  2.04200000e+03 
281.633  2.04500000e+03 
281.561  2.00800000e+03 
281.490  2.03800000e+03 
281.418  2.01100000e+03 
281.346  2.12600000e+03 
281.274  2.03600000e+03 
281.203  1.99200000e+03 
281.131  2.08100000e+03 
281.059  1.99300000e+03 
280.987  1.98500000e+03 
280.916  1.99900000e+03 
280.844  1.98900000e+03 
280.772  1.99000000e+03 
280.701  2.02000000e+03 
280.629  2.01500000e+03 
280.557  2.04100000e+03 
280.485  2.01500000e+03 
280.414  2.03600000e+03 
280.342  2.01000000e+03 
280.270  1.99200000e+03 
280.198  2.02900000e+03 
280.127  1.96400000e+03 
280.055  2.00400000e+03 
279.983  2.03300000e+03 
279.912  1.95100000e+03 
279.840  2.01500000e+03 
279.768  1.94400000e+03 
279.696  2.01700000e+03 
279.625  2.03600000e+03 
279.553  2.06500000e+03 
279.481  2.05800000e+03 
279.409  2.05100000e+03 
279.338  1.99400000e+03 
279.266  1.97700000e+03 
279.194  2.03600000e+03 
279.123  2.03000000e+03 
279.051  1.99100000e+03 
[ Region 7 Curve ]
BEcenter= 284.000 
BEwidth= -9.898  
Excitation= 1486.600
Time_p_channel= 512.000 
Size= 139
288.949  2.57000000e+03 
288.877  2.56900000e+03 
288.806  2.50400000e+03 
288.734  2.64500000e+03 
288.662  2.57900000e+03 
288.591  2.54900000e+03 
288.519  2.65400000e+03 
288.447  2.64700000e+03 
288.375  2.56800000e+03 
288.304  2.56400000e+03 
288.232  2.68600000e+03 
288.160  2.64700000e+03 
288.088  2.53600000e+03 
288.017  2.68100000e+03 
287.945  2.74200000e+03 
287.873  2.72800000e+03 
287.802  2.75800000e+03 
287.730  2.73900000e+03 
287.658  2.66200000e+03 
287.586  2.83400000e+03 
287.515  2.75700000e+03 
287.443  2.88800000e+03 
287.371  2.78700000e+03 
287.299  2.87900000e+03 
287.228  3.01000000e+03 
287.156  3.04200000e+03 
287.084  3.17600000e+03 
287.013  3.15700000e+03 
286.941  3.07500000e+03 
286.869  3.25800000e+03 
286.797  3.36900000e+03 
286.726  3.40600000e+03 
286.654  3.40900000e+03 
286.582  3.41400000e+03 
286.510  3.45600000e+03 
286.439  3.44300000e+03 
286.367  3.54000000e+03 
286.295  3.64500000e+03 
286.224  3.76400000e+03 
286.152  3.83600000e+03 
286.080  3.86900000e+03 
286.008  3.86600000e+03 
285.937  3.98300000e+03 
285.865  4.01400000e+03 
285.793  4.08500000e+03 
285.721  4.26200000e+03 
285.650  4.22700000e+03 
285.578  4.39000000e+03 
285.506  4.41700000e+03 
285.435  4.35500000e+03 
285.363  4.49700000e+03 
285.291  4.56700000e+03 
285.219  4.55300000e+03 
285.148  4.49700000e+03 
285.076  4.53700000e+03 
285.004  4.41800000e+03 
284.932  4.47800000e+03 
284.861  4.37700000e+03 
284.789  4.30500000e+03 
284.717  4.23300000e+03 
284.646  4.31900000e+03 
284.574  3.96800000e+03 
284.502  3.98800000e+03 
284.430  3.85000000e+03 
284.359  3.85500000e+03 
284.287  3.60800000e+03 
284.215  3.61600000e+03 
284.143  3.51000000e+03 
284.072  3.34700000e+03 
284.000  3.29700000e+03 
283.928  3.18800000e+03 
283.857  3.08600000e+03 
283.785  3.02100000e+03 
283.713  2.92900000e+03 
283.641  2.79600000e+03 
283.570  2.68400000e+03 
283.498  2.72900000e+03 
283.426  2.52200000e+03 
283.354  2.57000000e+03 
283.283  2.60400000e+03 
283.211  2.51300000e+03 
283.139  2.53000000e+03 
283.068  2.53600000e+03 
282.996  2.45200000e+03 
282.924  2.45900000e+03 
282.852  2.48500000e+03 
282.781  2.39100000e+03 
282.709  2.41300000e+03 
282.637  2.47700000e+03 
282.565  2.41400000e+03 
282.494  2.48400000e+03 
282.422  2.40900000e+03 
282.350  2.37700000e+03 
282.279  2.38300000e+03 
282.207  2.39300000e+03 
282.135  2.38500000e+03 
282.063  2.34000000e+03 
281.992  2.41700000e+03 
281.920  2.38500000e+03 
281.848  2.39300000e+03 
281.776  2.34000000e+03 
281.705  2.38700000e+03 
281.633  2.41500000e+03 
281.561  2.40300000e+03 
281.490  2.39500000e+03 
281.418  2.31800000e+03 
281.346  2.41100000e+03 
281.274  2.30400000e+03 
281.203  2.40200000e+03 
281.131  2.29100000e+03 
281.059  2.31100000e+03 
280.987  2.33100000e+03 
280.916  2.43200000e+03 
280.844  2.34800000e+03 
280.772  2.40000000e+03 
280.701  2.42000000e+03 
280.629  2.34000000e+03 
280.557  2.36100000e+03 
280.485  2.49600000e+03 
280.414  2.38500000e+03 
280.342  2.45600000e+03 
280.270  2.42100000e+03 
280.198  2.41700000e+03 
280.127  2.39500000e+03 
280.055  2.34100000e+03 
279.983  2.36800000e+03 
279.912  2.45100000e+03 
279.840  2.39300000e+03 
279.768  2.44200000e+03 
279.696  2.44300000e+03 
279.625  2.41200000e+03 
279.553  2.41500000e+03 
279.481  2.41600000e+03 
279.409  2.30900000e+03 
279.338  2.41700000e+03 
279.266  2.38200000e+03 
279.194  2.38600000e+03 
279.123  2.40000000e+03 
279.051  2.38100000e+03 
[ Region 8 Curve ]
BEcenter= 284.000 
BEwidth= -9.898  
Excitation= 1486.600
Time_p_channel= 512.000 
Size= 139
288.949  2.87800000e+03 
288.877  2.80800000e+03 
288.806  2.88600000e+03 
288.734  2.91200000e+03 
288.662  2.88900000e+03 
288.591  2.91700000e+03 
288.519  2.91900000e+03 
288.447  2.95200000e+03 
288.375  2.95200000e+03 
288.304  2.92700000e+03 
288.232  2.96700000e+03 
288.160  2.93300000e+03 
288.088  2.99400000e+03 
288.017  3.08100000e+03 
287.945  2.91500000e+03 
287.873  3.00800000e+03 
287.802  3.01900000e+03 
287.730  3.11300000e+03 
287.658  3.09600000e+03 
287.586  2.99400000e+03 
287.515  3.07900000e+03 
287.443  3.17500000e+03 
287.371  3.21900000e+03 
287.299  3.24200000e+03 
287.228  3.22700000e+03 
287.156  3.31400000e+03 
287.084  3.29900000e+03 
287.013  3.42600000e+03 
286.941  3.31200000e+03 
286.869  3.52000000e+03 
286.797  3.58700000e+03 
286.726  3.61800000e+03 
286.654  3.52700000e+03 
286.582  3.62800000e+03 
286.510  3.67200000e+03 
286.439  3.78600000e+03 
286.367  3.90800000e+03 
286.295  3.85100000e+03 
286.224  3.91000000e+03 
286.152  4.03400000e+03 
286.080  4.11000000e+03 
286.008  4.21800000e+03 
285.937  4.04300000e+03 
285.865  4.18600000e+03 
285.793  4.37100000e+03 
285.721  4.37900000e+03 
285.650  4.42800000e+03 
285.578  4.63700000e+03 
285.506  4.45100000e+03 
285.435  4.74100000e+03 
285.363  4.78000000e+03 
285.291  4.88200000e+03 
285.219  5.02500000e+03 
285.148  5.01900000e+03 
285.076  4.89400000e+03 
285.004  5.16600000e+03 
284.932  4.86600000e+03 
284.861  4.96000000e+03 
284.789  5.00900000e+03 
284.717  4.84400000e+03 
284.646  4.78500000e+03 
284.574  4.84600000e+03 
284.502  4.85400000e+03 
284.430  4.62500000e+03 
284.359  4.56200000e+03 
284.287  4.57400000e+03 
284.215  4.31800000e+03 
284.143  4.24200000e+03 
284.072  4.09600000e+03 
284.000  4.00500000e+03 
283.928  3.99600000e+03 
283.857  3.82600000e+03 
283.785  3.78000000e+03 
283.713  3.55600000e+03 
283.641  3.51100000e+03 
283.570  3.49400000e+03 
283.498  3.24900000e+03 
283.426  3.21000000e+03 
283.354  3.04700000e+03 
283.283  3.13000000e+03 
283.211  3.07300000e+03 
283.139  3.01200000e+03 
283.068  2.93100000e+03 
282.996  2.97700000e+03 
282.924  2.94000000e+03 
282.852  2.89900000e+03 
282.781  2.77800000e+03 
282.709  2.68900000e+03 
282.637  2.82200000e+03 
282.565  2.81000000e+03 
282.494  2.69400000e+03 
282.422  2.73800000e+03 
282.350  2.72500000e+03 
282.279  2.68100000e+03 
282.207  2.66600000e+03 
282.135  2.74300000e+03 
282.063  2.69800000e+03 
281.992  2.69500000e+03 
281.920  2.60200000e+03 
281.848  2.63500000e+03 
281.776  2.70300000e+03 
281.705  2.70500000e+03 
281.633  2.76900000e+03 
281.561  2.75200000e+03 
281.490  2.73200000e+03 
281.418  2.60600000e+03 
281.346  2.67300000e+03 
281.274  2.72700000e+03 
281.203  2.66900000e+03 
281.131  2.62700000e+03 
281.059  2.75800000e+03 
280.987  2.66900000e+03 
280.916  2.76500000e+03 
280.844  2.72200000e+03 
280.772  2.73000000e+03 
280.701  2.64200000e+03 
280.629  2.68300000e+03 
280.557  2.83800000e+03 
280.485  2.51700000e+03 
280.414  2.70500000e+03 
280.342  2.64800000e+03 
280.270  2.72500000e+03 
280.198  2.72700000e+03 
280.127  2.65900000e+03 
280.055  2.70800000e+03 
279.983  2.61800000e+03 
279.912  2.67600000e+03 
279.840  2.63900000e+03 
279.768  2.55600000e+03 
279.696  2.73800000e+03 
279.625  2.68700000e+03 
279.553  2.66100000e+03 
279.481  2.64500000e+03 
279.409  2.63300000e+03 
279.338  2.71300000e+03 
279.266  2.71900000e+03 
279.194  2.70900000e+03 
279.123  2.61100000e+03 
279.051  2.75200000e+03 
[ Region 9 Curve ]
BEcenter= 284.000 
BEwidth= -9.898  
Excitation= 1486.600
Time_p_channel= 512.000 
Size= 139
288.949  2.87800000e+03 
288.877  2.95700000e+03 
288.806  3.01100000e+03 
288.734  2.92000000e+03 
288.662  3.02800000e+03 
288.591  2.90800000e+03 
288.519  2.97900000e+03 
288.447  2.89600000e+03 
288.375  2.98100000e+03 
288.304  3.00900000e+03 
288.232  3.02600000e+03 
288.160  2.96700000e+03 
288.088  3.04700000e+03 
288.017  3.02500000e+03 
287.945  3.09400000e+03 
287.873  3.13800000e+03 
287.802  3.16200000e+03 
287.730  3.10200000e+03 
287.658  3.05600000e+03 
287.586  3.16600000e+03 
287.515  3.14600000e+03 
287.443  3.19100000e+03 
287.371  3.22700000e+03 
287.299  3.21900000e+03 
287.228  3.17500000e+03 
287.156  3.37300000e+03 
287.084  3.38400000e+03 
287.013  3.44900000e+03 
286.941  3.45700000e+03 
286.869  3.46200000e+03 
286.797  3.58900000e+03 
286.726  3.63000000e+03 
286.654  3.68000000e+03 
286.582  3.66200000e+03 
286.510  3.75500000e+03 
286.439  3.72500000e+03 
286.367  3.80600000e+03 
286.295  3.88800000e+03 
286.224  3.93800000e+03 
286.152  4.04300000e+03 
286.080  4.12100000e+03 
286.008  4.11000000e+03 
285.937  4.20800000e+03 
285.865  4.29600000e+03 
285.793  4.35900000e+03 
285.721  4.48200000e+03 
285.650  4.60700000e+03 
285.578  4.57400000e+03 
285.506  4.58200000e+03 
285.435  4.74100000e+03 
285.363  4.83800000e+03 
285.291  4.76500000e+03 
285.219  4.93300000e+03 
285.148  4.96000000e+03 
285.076  4.92200000e+03 
285.004  4.93800000e+03 
284.932  4.96100000e+03 
284.861  4.89100000e+03 
284.789  4.98100000e+03 
284.717  4.89100000e+03 
284.646  4.95900000e+03 
284.574  4.78000000e+03 
284.502  4.85100000e+03 
284.430  4.89100000e+03 
284.359  4.70200000e+03 
284.287  4.61600000e+03 
284.215  4.56800000e+03 
284.143  4.48800000e+03 
284.072  4.49700000e+03 
284.000  4.24200000e+03 
283.928  4.21900000e+03 
283.857  4.14500000e+03 
283.785  4.16600000e+03 
283.713  3.86400000e+03 
283.641  3.81800000e+03 
283.570  3.58300000e+03 
283.498  3.61900000e+03 
283.426  3.54500000e+03 
283.354  3.41800000e+03 
283.283  3.32400000e+03 
283.211  3.26600000e+03 
283.139  3.25700000e+03 
283.068  3.13800000e+03 
282.996  3.11500000e+03 
282.924  3.03500000e+03 
282.852  3.04600000e+03 
282.781  2.94200000e+03 
282.709  2.92500000e+03 
282.637  2.92800000e+03 
282.565  2.84000000e+03 
282.494  2.85500000e+03 
282.422  2.82900000e+03 
282.350  2.87700000e+03 
282.279  2.73500000e+03 
282.207  2.70800000e+03 
282.135  2.77000000e+03 
282.063  2.73400000e+03 
281.992  2.83300000e+03 
281.920  2.76300000e+03 
281.848  2.79100000e+03 
281.776  2.67900000e+03 
281.705  2.83200000e+03 
281.633  2.76600000e+03 
281.561  2.74600000e+03 
281.490  2.70700000e+03 
281.418  2.80000000e+03 
281.346  2.86900000e+03 
281.274  2.74100000e+03 
281.203  2.71500000e+03 
281.131  2.76800000e+03 
281.059  2.76300000e+03 
280.987  2.74200000e+03 
280.916  2.75800000e+03 
280.844  2.85500000e+03 
280.772  2.69300000e+03 
280.701  2.74900000e+03 
280.629  2.79900000e+03 
280.557  2.82400000e+03 
280.485  2.78700000e+03 
280.414  2.85700000e+03 
280.342  2.83300000e+03 
280.270  2.79400000e+03 
280.198  2.76900000e+03 
280.127  2.80600000e+03 
280.055  2.74800000e+03 
279.983  2.82000000e+03 
279.912  2.77600000e+03 
279.840  2.75000000e+03 
279.768  2.83600000e+03 
279.696  2.80400000e+03 
279.625  2.66700000e+03 
279.553  2.78600000e+03 
279.481  2.85000000e+03 
279.409  2.77400000e+03 
279.338  2.78600000e+03 
279.266  2.75300000e+03 
279.194  2.65400000e+03 
279.123  2.74300000e+03 
279.051  2.81200000e+03 
