[ Experiment Parameters ]
Experiment Description= au4f, mono=6.95to7.0, rod="0", takeoff=-40,-30...40 
Number_of_Regions_in_Experiment= 9 

Original_File_name= c:\alexesca\data\97071604.xps 
Instrument= ESCA-West
Date= 07-16-1997
Time=  18:13:56

[ Region 1 Parameters ]
Region_Description = au 4f dithered                     
BEcenter(eV) = 85.000000
BEwidth(eV) = 8.000000
BEstep(eV) = 0.107813
Dwell_Time(sec) = 0.500000
N_o_scans = 2  
N_o_Channels = 74  
Excitation_Energy = -0.000000  
Scan_mode = 0  (DITHERED)

[ Region 2 Parameters ]
Region_Description = au 4f dithered                     
BEcenter(eV) = 85.000000
BEwidth(eV) = 8.000000
BEstep(eV) = 0.107813
Dwell_Time(sec) = 0.500000
N_o_scans = 2  
N_o_Channels = 74  
Excitation_Energy = -0.000000  
Scan_mode = 0  (DITHERED)

[ Region 3 Parameters ]
Region_Description = au 4f dithered                     
BEcenter(eV) = 85.000000
BEwidth(eV) = 8.000000
BEstep(eV) = 0.107813
Dwell_Time(sec) = 0.500000
N_o_scans = 2  
N_o_Channels = 74  
Excitation_Energy = -0.000000  
Scan_mode = 0  (DITHERED)

[ Region 4 Parameters ]
Region_Description = au 4f dithered                     
BEcenter(eV) = 85.000000
BEwidth(eV) = 8.000000
BEstep(eV) = 0.107813
Dwell_Time(sec) = 0.500000
N_o_scans = 2  
N_o_Channels = 74  
Excitation_Energy = -0.000000  
Scan_mode = 0  (DITHERED)

[ Region 5 Parameters ]
Region_Description = au 4f dithered                     
BEcenter(eV) = 85.000000
BEwidth(eV) = 8.000000
BEstep(eV) = 0.107813
Dwell_Time(sec) = 0.500000
N_o_scans = 2  
N_o_Channels = 74  
Excitation_Energy = -0.000000  
Scan_mode = 0  (DITHERED)

[ Region 6 Parameters ]
Region_Description = au 4f dithered                     
BEcenter(eV) = 85.000000
BEwidth(eV) = 8.000000
BEstep(eV) = 0.107813
Dwell_Time(sec) = 0.500000
N_o_scans = 2  
N_o_Channels = 74  
Excitation_Energy = -0.000000  
Scan_mode = 0  (DITHERED)

[ Region 7 Parameters ]
Region_Description = au 4f dithered                     
BEcenter(eV) = 85.000000
BEwidth(eV) = 8.000000
BEstep(eV) = 0.107813
Dwell_Time(sec) = 0.500000
N_o_scans = 2  
N_o_Channels = 74  
Excitation_Energy = -0.000000  
Scan_mode = 0  (DITHERED)

[ Region 8 Parameters ]
Region_Description = au 4f dithered                     
BEcenter(eV) = 85.000000
BEwidth(eV) = 8.000000
BEstep(eV) = 0.107813
Dwell_Time(sec) = 0.500000
N_o_scans = 2  
N_o_Channels = 74  
Excitation_Energy = -0.000000  
Scan_mode = 0  (DITHERED)

[ Region 9 Parameters ]
Region_Description = au 4f dithered                     
BEcenter(eV) = 85.000000
BEwidth(eV) = 8.000000
BEstep(eV) = 0.107813
Dwell_Time(sec) = 0.500000
N_o_scans = 2  
N_o_Channels = 74  
Excitation_Energy = -0.000000  
Scan_mode = 0  (DITHERED)

[ Region 1 Curve ]
BEcenter= 85.000  
BEwidth= -7.838  
Excitation= 1486.600
Time_p_channel= 768.000 
Size= 74
88.919   1.38000000e+02 
88.812   1.61000000e+02 
88.704   1.66000000e+02 
88.597   1.82000000e+02 
88.489   1.83000000e+02 
88.382   1.89000000e+02 
88.275   2.22000000e+02 
88.167   2.18000000e+02 
88.060   2.89000000e+02 
87.953   2.77000000e+02 
87.845   3.34000000e+02 
87.738   4.56000000e+02 
87.631   5.17000000e+02 
87.523   5.62000000e+02 
87.416   5.36000000e+02 
87.308   5.44000000e+02 
87.201   5.48000000e+02 
87.094   4.75000000e+02 
86.986   4.04000000e+02 
86.879   3.32000000e+02 
86.772   2.57000000e+02 
86.664   2.15000000e+02 
86.557   1.65000000e+02 
86.449   1.36000000e+02 
86.342   1.52000000e+02 
86.235   1.46000000e+02 
86.127   1.14000000e+02 
86.020   1.22000000e+02 
85.913   1.22000000e+02 
85.805   1.24000000e+02 
85.698   1.36000000e+02 
85.591   1.22000000e+02 
85.483   1.23000000e+02 
85.376   1.54000000e+02 
85.268   1.60000000e+02 
85.161   1.69000000e+02 
85.054   2.07000000e+02 
84.946   1.90000000e+02 
84.839   2.51000000e+02 
84.732   2.77000000e+02 
84.624   2.96000000e+02 
84.517   2.94000000e+02 
84.409   3.47000000e+02 
84.302   4.13000000e+02 
84.195   4.56000000e+02 
84.087   5.26000000e+02 
83.980   6.20000000e+02 
83.873   6.64000000e+02 
83.765   6.11000000e+02 
83.658   6.20000000e+02 
83.551   5.60000000e+02 
83.443   5.29000000e+02 
83.336   3.89000000e+02 
83.228   2.57000000e+02 
83.121   2.23000000e+02 
83.014   1.46000000e+02 
82.906   1.39000000e+02 
82.799   1.27000000e+02 
82.692   1.03000000e+02 
82.584   8.60000000e+01 
82.477   8.20000000e+01 
82.369   8.30000000e+01 
82.262   7.40000000e+01 
82.155   7.40000000e+01 
82.047   8.10000000e+01 
81.940   6.50000000e+01 
81.833   6.00000000e+01 
81.725   6.10000000e+01 
81.618   5.70000000e+01 
81.511   5.30000000e+01 
81.403   7.50000000e+01 
81.296   5.70000000e+01 
81.188   5.80000000e+01 
81.081   5.60000000e+01 
[ Region 2 Curve ]
BEcenter= 85.000  
BEwidth= -7.838  
Excitation= 1486.600
Time_p_channel= 768.000 
Size= 74
88.919   3.51000000e+02 
88.812   3.76000000e+02 
88.704   4.17000000e+02 
88.597   4.24000000e+02 
88.489   5.24000000e+02 
88.382   5.40000000e+02 
88.275   5.80000000e+02 
88.167   7.42000000e+02 
88.060   7.53000000e+02 
87.953   9.55000000e+02 
87.845   1.07800000e+03 
87.738   1.28300000e+03 
87.631   1.42900000e+03 
87.523   1.55900000e+03 
87.416   1.49900000e+03 
87.308   1.39400000e+03 
87.201   1.20300000e+03 
87.094   9.31000000e+02 
86.986   7.35000000e+02 
86.879   5.53000000e+02 
86.772   4.36000000e+02 
86.664   4.21000000e+02 
86.557   3.28000000e+02 
86.449   3.48000000e+02 
86.342   3.22000000e+02 
86.235   3.37000000e+02 
86.127   3.17000000e+02 
86.020   2.94000000e+02 
85.913   2.92000000e+02 
85.805   3.22000000e+02 
85.698   3.66000000e+02 
85.591   3.34000000e+02 
85.483   3.90000000e+02 
85.376   4.16000000e+02 
85.268   4.07000000e+02 
85.161   4.80000000e+02 
85.054   5.41000000e+02 
84.946   6.28000000e+02 
84.839   6.73000000e+02 
84.732   7.68000000e+02 
84.624   8.40000000e+02 
84.517   9.12000000e+02 
84.409   9.37000000e+02 
84.302   1.07400000e+03 
84.195   1.32800000e+03 
84.087   1.46200000e+03 
83.980   1.59700000e+03 
83.873   1.66000000e+03 
83.765   1.63600000e+03 
83.658   1.43200000e+03 
83.551   1.12100000e+03 
83.443   9.16000000e+02 
83.336   6.72000000e+02 
83.228   5.27000000e+02 
83.121   3.60000000e+02 
83.014   3.31000000e+02 
82.906   2.76000000e+02 
82.799   2.18000000e+02 
82.692   2.07000000e+02 
82.584   1.83000000e+02 
82.477   1.93000000e+02 
82.369   1.63000000e+02 
82.262   1.60000000e+02 
82.155   1.52000000e+02 
82.047   1.41000000e+02 
81.940   1.73000000e+02 
81.833   1.55000000e+02 
81.725   1.61000000e+02 
81.618   1.55000000e+02 
81.511   1.22000000e+02 
81.403   1.50000000e+02 
81.296   1.30000000e+02 
81.188   1.37000000e+02 
81.081   1.17000000e+02 
[ Region 3 Curve ]
BEcenter= 85.000  
BEwidth= -7.838  
Excitation= 1486.600
Time_p_channel= 768.000 
Size= 74
88.919   7.11000000e+02 
88.812   7.98000000e+02 
88.704   8.43000000e+02 
88.597   9.07000000e+02 
88.489   9.71000000e+02 
88.382   1.11000000e+03 
88.275   1.34300000e+03 
88.167   1.53800000e+03 
88.060   1.75700000e+03 
87.953   2.13600000e+03 
87.845   2.27100000e+03 
87.738   2.63800000e+03 
87.631   2.75700000e+03 
87.523   2.86200000e+03 
87.416   2.64000000e+03 
87.308   2.30400000e+03 
87.201   1.83100000e+03 
87.094   1.40400000e+03 
86.986   1.05600000e+03 
86.879   8.70000000e+02 
86.772   7.66000000e+02 
86.664   6.84000000e+02 
86.557   6.49000000e+02 
86.449   6.30000000e+02 
86.342   5.65000000e+02 
86.235   5.82000000e+02 
86.127   5.78000000e+02 
86.020   5.88000000e+02 
85.913   5.91000000e+02 
85.805   5.98000000e+02 
85.698   6.44000000e+02 
85.591   7.28000000e+02 
85.483   7.50000000e+02 
85.376   8.44000000e+02 
85.268   8.72000000e+02 
85.161   9.55000000e+02 
85.054   1.16900000e+03 
84.946   1.39200000e+03 
84.839   1.36100000e+03 
84.732   1.52300000e+03 
84.624   1.66200000e+03 
84.517   1.85700000e+03 
84.409   2.06700000e+03 
84.302   2.35200000e+03 
84.195   2.77500000e+03 
84.087   2.96300000e+03 
83.980   3.09100000e+03 
83.873   3.03900000e+03 
83.765   2.86400000e+03 
83.658   2.23400000e+03 
83.551   1.76800000e+03 
83.443   1.27800000e+03 
83.336   9.54000000e+02 
83.228   7.12000000e+02 
83.121   5.34000000e+02 
83.014   4.61000000e+02 
82.906   4.45000000e+02 
82.799   3.67000000e+02 
82.692   3.47000000e+02 
82.584   3.13000000e+02 
82.477   3.15000000e+02 
82.369   2.77000000e+02 
82.262   2.85000000e+02 
82.155   2.64000000e+02 
82.047   2.46000000e+02 
81.940   2.58000000e+02 
81.833   2.46000000e+02 
81.725   2.23000000e+02 
81.618   2.20000000e+02 
81.511   2.44000000e+02 
81.403   2.42000000e+02 
81.296   2.17000000e+02 
81.188   2.19000000e+02 
81.081   2.32000000e+02 
[ Region 4 Curve ]
BEcenter= 85.000  
BEwidth= -7.838  
Excitation= 1486.600
Time_p_channel= 768.000 
Size= 74
88.919   1.13300000e+03 
88.812   1.21600000e+03 
88.704   1.30300000e+03 
88.597   1.44500000e+03 
88.489   1.62100000e+03 
88.382   1.84800000e+03 
88.275   2.21600000e+03 
88.167   2.47400000e+03 
88.060   2.87300000e+03 
87.953   3.27900000e+03 
87.845   3.70900000e+03 
87.738   4.07500000e+03 
87.631   4.22100000e+03 
87.523   4.16100000e+03 
87.416   3.73700000e+03 
87.308   3.14200000e+03 
87.201   2.40300000e+03 
87.094   1.80600000e+03 
86.986   1.51300000e+03 
86.879   1.27300000e+03 
86.772   1.07800000e+03 
86.664   9.78000000e+02 
86.557   9.58000000e+02 
86.449   8.92000000e+02 
86.342   9.17000000e+02 
86.235   7.90000000e+02 
86.127   8.56000000e+02 
86.020   8.78000000e+02 
85.913   9.44000000e+02 
85.805   9.55000000e+02 
85.698   9.79000000e+02 
85.591   1.14600000e+03 
85.483   1.20400000e+03 
85.376   1.37300000e+03 
85.268   1.47100000e+03 
85.161   1.69300000e+03 
85.054   1.86600000e+03 
84.946   2.13800000e+03 
84.839   2.22500000e+03 
84.732   2.57500000e+03 
84.624   2.71900000e+03 
84.517   3.04900000e+03 
84.409   3.37900000e+03 
84.302   3.87900000e+03 
84.195   4.32900000e+03 
84.087   4.47800000e+03 
83.980   4.80200000e+03 
83.873   4.50700000e+03 
83.765   4.02300000e+03 
83.658   3.15200000e+03 
83.551   2.31500000e+03 
83.443   1.65200000e+03 
83.336   1.27100000e+03 
83.228   9.92000000e+02 
83.121   7.67000000e+02 
83.014   6.61000000e+02 
82.906   5.69000000e+02 
82.799   5.54000000e+02 
82.692   4.81000000e+02 
82.584   4.77000000e+02 
82.477   3.92000000e+02 
82.369   3.55000000e+02 
82.262   3.93000000e+02 
82.155   4.09000000e+02 
82.047   3.91000000e+02 
81.940   3.29000000e+02 
81.833   3.55000000e+02 
81.725   3.58000000e+02 
81.618   3.64000000e+02 
81.511   3.31000000e+02 
81.403   2.97000000e+02 
81.296   3.00000000e+02 
81.188   2.82000000e+02 
81.081   2.75000000e+02 
[ Region 5 Curve ]
BEcenter= 85.000  
BEwidth= -7.838  
Excitation= 1486.600
Time_p_channel= 768.000 
Size= 74
88.919   1.74400000e+03 
88.812   1.82600000e+03 
88.704   2.14300000e+03 
88.597   2.32800000e+03 
88.489   2.70100000e+03 
88.382   3.08800000e+03 
88.275   3.55000000e+03 
88.167   4.02500000e+03 
88.060   4.49400000e+03 
87.953   5.17200000e+03 
87.845   5.48100000e+03 
87.738   5.69000000e+03 
87.631   5.39400000e+03 
87.523   4.93400000e+03 
87.416   3.99200000e+03 
87.308   3.23800000e+03 
87.201   2.50800000e+03 
87.094   1.98500000e+03 
86.986   1.67200000e+03 
86.879   1.49800000e+03 
86.772   1.30700000e+03 
86.664   1.21900000e+03 
86.557   1.15300000e+03 
86.449   1.16800000e+03 
86.342   1.13800000e+03 
86.235   1.11700000e+03 
86.127   1.17800000e+03 
86.020   1.19500000e+03 
85.913   1.34000000e+03 
85.805   1.36500000e+03 
85.698   1.45400000e+03 
85.591   1.64600000e+03 
85.483   1.88700000e+03 
85.376   2.09700000e+03 
85.268   2.28800000e+03 
85.161   2.43300000e+03 
85.054   2.88500000e+03 
84.946   3.04800000e+03 
84.839   3.40400000e+03 
84.732   3.76300000e+03 
84.624   4.27200000e+03 
84.517   4.74500000e+03 
84.409   5.30300000e+03 
84.302   5.73100000e+03 
84.195   6.11700000e+03 
84.087   6.14800000e+03 
83.980   5.81100000e+03 
83.873   5.08500000e+03 
83.765   4.05000000e+03 
83.658   3.04400000e+03 
83.551   2.37000000e+03 
83.443   1.67700000e+03 
83.336   1.38900000e+03 
83.228   1.06300000e+03 
83.121   9.82000000e+02 
83.014   8.02000000e+02 
82.906   7.01000000e+02 
82.799   6.63000000e+02 
82.692   6.21000000e+02 
82.584   5.48000000e+02 
82.477   5.15000000e+02 
82.369   5.11000000e+02 
82.262   5.02000000e+02 
82.155   4.54000000e+02 
82.047   4.61000000e+02 
81.940   4.26000000e+02 
81.833   4.18000000e+02 
81.725   4.00000000e+02 
81.618   4.53000000e+02 
81.511   3.96000000e+02 
81.403   4.14000000e+02 
81.296   3.86000000e+02 
81.188   3.88000000e+02 
81.081   3.48000000e+02 
[ Region 6 Curve ]
BEcenter= 85.000  
BEwidth= -7.838  
Excitation= 1486.600
Time_p_channel= 768.000 
Size= 74
88.919   2.31900000e+03 
88.812   2.63200000e+03 
88.704   2.91400000e+03 
88.597   3.29700000e+03 
88.489   3.74900000e+03 
88.382   4.43100000e+03 
88.275   4.96900000e+03 
88.167   5.51900000e+03 
88.060   6.12500000e+03 
87.953   6.56700000e+03 
87.845   6.52300000e+03 
87.738   6.20800000e+03 
87.631   5.47500000e+03 
87.523   4.82300000e+03 
87.416   3.98500000e+03 
87.308   3.21600000e+03 
87.201   2.66800000e+03 
87.094   2.28700000e+03 
86.986   1.89500000e+03 
86.879   1.72300000e+03 
86.772   1.56800000e+03 
86.664   1.51500000e+03 
86.557   1.41000000e+03 
86.449   1.38800000e+03 
86.342   1.35700000e+03 
86.235   1.47500000e+03 
86.127   1.47900000e+03 
86.020   1.53900000e+03 
85.913   1.64200000e+03 
85.805   1.74900000e+03 
85.698   1.96800000e+03 
85.591   2.08100000e+03 
85.483   2.39400000e+03 
85.376   2.73200000e+03 
85.268   2.99800000e+03 
85.161   3.31100000e+03 
85.054   3.60700000e+03 
84.946   4.06300000e+03 
84.839   4.58800000e+03 
84.732   5.15100000e+03 
84.624   5.82900000e+03 
84.517   6.28800000e+03 
84.409   6.83900000e+03 
84.302   7.27600000e+03 
84.195   7.02300000e+03 
84.087   6.63200000e+03 
83.980   5.89100000e+03 
83.873   5.09700000e+03 
83.765   4.08800000e+03 
83.658   3.22900000e+03 
83.551   2.57700000e+03 
83.443   1.93500000e+03 
83.336   1.60300000e+03 
83.228   1.28400000e+03 
83.121   1.10900000e+03 
83.014   9.81000000e+02 
82.906   8.82000000e+02 
82.799   7.94000000e+02 
82.692   8.12000000e+02 
82.584   7.24000000e+02 
82.477   6.32000000e+02 
82.369   6.36000000e+02 
82.262   5.42000000e+02 
82.155   5.70000000e+02 
82.047   5.21000000e+02 
81.940   4.80000000e+02 
81.833   4.95000000e+02 
81.725   4.88000000e+02 
81.618   4.59000000e+02 
81.511   4.84000000e+02 
81.403   4.42000000e+02 
81.296   4.61000000e+02 
81.188   4.60000000e+02 
81.081   4.43000000e+02 
[ Region 7 Curve ]
BEcenter= 85.000  
BEwidth= -7.838  
Excitation= 1486.600
Time_p_channel= 768.000 
Size= 74
88.919   2.79300000e+03 
88.812   3.12400000e+03 
88.704   3.50200000e+03 
88.597   3.95900000e+03 
88.489   4.65100000e+03 
88.382   5.30200000e+03 
88.275   5.87300000e+03 
88.167   6.50900000e+03 
88.060   6.72400000e+03 
87.953   6.83900000e+03 
87.845   6.44000000e+03 
87.738   5.94100000e+03 
87.631   5.40900000e+03 
87.523   4.76400000e+03 
87.416   4.06200000e+03 
87.308   3.51400000e+03 
87.201   3.00200000e+03 
87.094   2.52300000e+03 
86.986   2.14900000e+03 
86.879   2.04600000e+03 
86.772   1.82200000e+03 
86.664   1.81600000e+03 
86.557   1.61200000e+03 
86.449   1.63700000e+03 
86.342   1.66400000e+03 
86.235   1.67800000e+03 
86.127   1.74500000e+03 
86.020   1.91300000e+03 
85.913   1.87800000e+03 
85.805   2.12300000e+03 
85.698   2.40000000e+03 
85.591   2.58700000e+03 
85.483   2.89300000e+03 
85.376   3.11700000e+03 
85.268   3.48100000e+03 
85.161   3.84100000e+03 
85.054   4.45000000e+03 
84.946   4.88400000e+03 
84.839   5.51000000e+03 
84.732   6.28500000e+03 
84.624   6.71800000e+03 
84.517   7.24100000e+03 
84.409   7.48700000e+03 
84.302   7.32100000e+03 
84.195   7.10000000e+03 
84.087   6.26700000e+03 
83.980   5.49700000e+03 
83.873   4.65400000e+03 
83.765   4.09200000e+03 
83.658   3.40200000e+03 
83.551   2.65600000e+03 
83.443   2.28900000e+03 
83.336   1.78700000e+03 
83.228   1.55600000e+03 
83.121   1.28600000e+03 
83.014   1.13800000e+03 
82.906   9.91000000e+02 
82.799   8.79000000e+02 
82.692   8.20000000e+02 
82.584   7.77000000e+02 
82.477   7.97000000e+02 
82.369   6.60000000e+02 
82.262   6.03000000e+02 
82.155   5.88000000e+02 
82.047   5.28000000e+02 
81.940   5.52000000e+02 
81.833   4.86000000e+02 
81.725   5.26000000e+02 
81.618   4.71000000e+02 
81.511   5.17000000e+02 
81.403   4.95000000e+02 
81.296   5.00000000e+02 
81.188   4.67000000e+02 
81.081   4.80000000e+02 
[ Region 8 Curve ]
BEcenter= 85.000  
BEwidth= -7.838  
Excitation= 1486.600
Time_p_channel= 768.000 
Size= 74
88.919   2.85200000e+03 
88.812   3.23800000e+03 
88.704   3.68700000e+03 
88.597   4.29300000e+03 
88.489   4.84800000e+03 
88.382   5.29700000e+03 
88.275   5.94200000e+03 
88.167   6.17900000e+03 
88.060   6.25600000e+03 
87.953   6.36700000e+03 
87.845   6.14800000e+03 
87.738   5.51800000e+03 
87.631   5.04500000e+03 
87.523   4.69400000e+03 
87.416   4.20900000e+03 
87.308   3.75800000e+03 
87.201   3.39000000e+03 
87.094   3.01600000e+03 
86.986   2.81200000e+03 
86.879   2.36100000e+03 
86.772   2.22200000e+03 
86.664   2.02400000e+03 
86.557   1.88600000e+03 
86.449   1.80500000e+03 
86.342   1.79700000e+03 
86.235   1.88600000e+03 
86.127   1.83700000e+03 
86.020   1.89300000e+03 
85.913   2.13900000e+03 
85.805   2.23700000e+03 
85.698   2.43300000e+03 
85.591   2.56800000e+03 
85.483   2.96800000e+03 
85.376   3.20000000e+03 
85.268   3.47000000e+03 
85.161   4.04800000e+03 
85.054   4.54100000e+03 
84.946   5.11200000e+03 
84.839   5.74300000e+03 
84.732   6.24000000e+03 
84.624   6.69600000e+03 
84.517   6.97600000e+03 
84.409   7.09100000e+03 
84.302   6.94200000e+03 
84.195   6.62200000e+03 
84.087   6.06600000e+03 
83.980   5.49700000e+03 
83.873   4.96200000e+03 
83.765   4.31800000e+03 
83.658   3.78800000e+03 
83.551   3.30300000e+03 
83.443   2.88500000e+03 
83.336   2.39300000e+03 
83.228   2.07700000e+03 
83.121   1.78000000e+03 
83.014   1.38700000e+03 
82.906   1.26300000e+03 
82.799   1.07800000e+03 
82.692   9.36000000e+02 
82.584   8.53000000e+02 
82.477   7.85000000e+02 
82.369   7.48000000e+02 
82.262   6.81000000e+02 
82.155   5.90000000e+02 
82.047   5.96000000e+02 
81.940   5.81000000e+02 
81.833   5.11000000e+02 
81.725   5.34000000e+02 
81.618   5.52000000e+02 
81.511   5.17000000e+02 
81.403   5.03000000e+02 
81.296   4.88000000e+02 
81.188   4.67000000e+02 
81.081   4.86000000e+02 
[ Region 9 Curve ]
BEcenter= 85.000  
BEwidth= -7.838  
Excitation= 1486.600
Time_p_channel= 768.000 
Size= 74
88.919   2.76000000e+03 
88.812   3.00300000e+03 
88.704   3.46400000e+03 
88.597   3.90000000e+03 
88.489   4.51300000e+03 
88.382   4.77700000e+03 
88.275   5.19100000e+03 
88.167   5.28100000e+03 
88.060   5.35000000e+03 
87.953   5.32100000e+03 
87.845   5.04900000e+03 
87.738   4.75500000e+03 
87.631   4.66000000e+03 
87.523   4.28800000e+03 
87.416   4.09500000e+03 
87.308   3.69400000e+03 
87.201   3.48200000e+03 
87.094   3.29900000e+03 
86.986   2.95100000e+03 
86.879   2.75700000e+03 
86.772   2.64400000e+03 
86.664   2.39500000e+03 
86.557   2.14500000e+03 
86.449   2.12700000e+03 
86.342   1.97100000e+03 
86.235   1.85600000e+03 
86.127   1.90700000e+03 
86.020   1.92800000e+03 
85.913   2.07200000e+03 
85.805   2.12700000e+03 
85.698   2.23200000e+03 
85.591   2.51700000e+03 
85.483   2.63000000e+03 
85.376   2.89900000e+03 
85.268   3.32500000e+03 
85.161   3.60800000e+03 
85.054   4.18100000e+03 
84.946   4.72100000e+03 
84.839   5.09400000e+03 
84.732   5.73400000e+03 
84.624   5.84100000e+03 
84.517   6.17800000e+03 
84.409   6.14400000e+03 
84.302   5.84100000e+03 
84.195   5.84000000e+03 
84.087   5.27800000e+03 
83.980   4.88900000e+03 
83.873   4.71400000e+03 
83.765   4.35800000e+03 
83.658   3.81300000e+03 
83.551   3.48200000e+03 
83.443   3.19100000e+03 
83.336   3.02200000e+03 
83.228   2.58800000e+03 
83.121   2.28100000e+03 
83.014   1.98100000e+03 
82.906   1.59900000e+03 
82.799   1.39200000e+03 
82.692   1.13700000e+03 
82.584   1.01100000e+03 
82.477   8.72000000e+02 
82.369   7.66000000e+02 
82.262   7.08000000e+02 
82.155   6.20000000e+02 
82.047   5.95000000e+02 
81.940   6.13000000e+02 
81.833   5.68000000e+02 
81.725   4.93000000e+02 
81.618   5.20000000e+02 
81.511   5.07000000e+02 
81.403   4.65000000e+02 
81.296   4.95000000e+02 
81.188   4.64000000e+02 
81.081   4.56000000e+02 
