[ Experiment Parameters ]
Experiment Description= <none> 
Number_of_Regions_in_Experiment= 1 

Original_File_name= c:\alexesca\data\crap.xps 
Instrument= ESCA-West
Date= 07-30-1997
Time=  11:37:26

[ Region 1 Parameters ]
Region_Description = C 1s                               
BEcenter(eV) = 284.500000
BEwidth(eV) = 7.000000
BEstep(eV) = 0.071875
Dwell_Time(sec) = 1.250000
N_o_scans = 2  
N_o_Channels = 97  
Excitation_Energy = 0.000000  
Scan_mode = 0  (DITHERED)

[ Region 1 Curve ]
BEcenter= 284.500 
BEwidth= -6.875  
Excitation= 1486.600
Time_p_channel= 320.000 
Size= 97
287.937  1.31130000e+04 
287.866  1.33960000e+04 
287.794  1.37230000e+04 
287.723  1.43950000e+04 
287.651  1.46530000e+04 
287.579  1.52200000e+04 
287.508  1.57950000e+04 
287.436  1.61280000e+04 
287.365  1.66280000e+04 
287.293  1.73790000e+04 
287.221  1.78080000e+04 
287.150  1.85360000e+04 
287.078  1.89760000e+04 
287.007  1.97340000e+04 
286.935  2.06840000e+04 
286.863  2.11130000e+04 
286.792  2.19100000e+04 
286.720  2.24490000e+04 
286.648  2.31920000e+04 
286.577  2.38630000e+04 
286.505  2.40450000e+04 
286.434  2.39690000e+04 
286.362  2.42920000e+04 
286.290  2.40930000e+04 
286.219  2.35340000e+04 
286.147  2.30270000e+04 
286.076  2.25530000e+04 
286.004  2.15980000e+04 
285.932  2.08790000e+04 
285.861  1.95250000e+04 
285.789  1.85240000e+04 
285.717  1.74510000e+04 
285.646  1.62270000e+04 
285.574  1.48800000e+04 
285.503  1.37300000e+04 
285.431  1.28760000e+04 
285.359  1.17090000e+04 
285.288  1.06730000e+04 
285.216  9.60200000e+03 
285.145  8.70100000e+03 
285.073  8.03700000e+03 
285.001  7.32600000e+03 
284.930  6.63800000e+03 
284.858  5.99400000e+03 
284.786  5.47000000e+03 
284.715  5.12700000e+03 
284.643  4.80500000e+03 
284.572  4.47600000e+03 
284.500  4.15700000e+03 
284.428  3.83300000e+03 
284.357  3.85800000e+03 
284.285  3.51700000e+03 
284.214  3.41700000e+03 
284.142  3.40000000e+03 
284.070  3.30700000e+03 
283.999  3.37400000e+03 
283.927  3.14400000e+03 
283.855  3.05100000e+03 
283.784  3.03700000e+03 
283.712  3.07300000e+03 
283.641  3.10400000e+03 
283.569  3.02300000e+03 
283.497  2.95300000e+03 
283.426  3.04300000e+03 
283.354  2.92000000e+03 
283.283  2.97700000e+03 
283.211  2.96900000e+03 
283.139  3.00300000e+03 
283.068  2.93700000e+03 
282.996  2.92100000e+03 
282.924  2.86600000e+03 
282.853  2.94600000e+03 
282.781  2.90600000e+03 
282.710  2.97900000e+03 
282.638  2.90700000e+03 
282.566  2.95700000e+03 
282.495  2.87000000e+03 
282.423  2.90500000e+03 
282.352  2.81100000e+03 
282.280  2.87800000e+03 
282.208  2.91800000e+03 
282.137  2.94000000e+03 
282.065  2.91300000e+03 
281.993  2.85300000e+03 
281.922  2.83400000e+03 
281.850  2.85800000e+03 
281.779  2.97800000e+03 
281.707  2.87500000e+03 
281.635  2.82800000e+03 
281.564  2.80500000e+03 
281.492  2.85500000e+03 
281.421  2.87700000e+03 
281.349  2.85200000e+03 
281.277  2.81400000e+03 
281.206  2.89000000e+03 
281.134  2.91400000e+03 
281.062  2.87800000e+03 
