[ Experiment Parameters ]
Experiment Description= <none> 
Number_of_Regions_in_Experiment= 2 

Original_File_name= C:\ALEXESCA\Data\crap.xps 
Instrument= ESCA-West
Date= 07-04-1997
Time=  01:17:37

[ Region 1 Parameters ]
Region_Description = software testing 2                 
BEcenter(eV) = 100.000000
BEwidth(eV) = 6.000000
BEstep(eV) = 0.251563
Dwell_Time(sec) = 0.001000
Time_per_Channel(sec) = 0.000000
N_o_scans = 2  
N_o_Channels = 24  
Excitation_Energy = 0.000000  
Scan_mode = 0  (DITHERED)

[ Region 2 Parameters ]
Region_Description = software testing 3                 
BEcenter(eV) = 100.000000
BEwidth(eV) = 8.000000
BEstep(eV) = 0.143750
Dwell_Time(sec) = 0.001000
Time_per_Channel(sec) = 0.000000
N_o_scans = 1  
N_o_Channels = 56  
Excitation_Energy = 0.000000  
Scan_mode = 0  (DITHERED)

[ Region 1 Curve ]
BEcenter= 100.000 
BEwidth= -5.732  
Excitation= 1486.600
Time_p_channel= 0.014   
Size= 24
102.866  600.0
102.617  610.0
102.368  622.0
102.119  637.0
101.869  645.0
101.620  700.0 
101.371  740.0
101.122  746.0 
100.872  758.0 
100.623  850.0 
100.374  940.0 
100.125  1000.0
99.875   875.0 
99.626   834.0 
99.377   719.0
99.128   680.0 
98.878   610.0 
98.629   520.0 
98.380   390.0 
98.131   305.0 
97.881   250.0 
97.632   240.0 
97.383   130.0 
97.134   125.0 

[ Region 2 Curve ]
BEcenter= 100.000 
BEwidth= -7.883  
Excitation= 1486.600
Time_p_channel= 0.004   
Size= 56
103.941  3.26400000e+04 
103.798  3.36400000e+04 
103.655  3.46400000e+04 
103.511  3.56400000e+04 
103.368  3.76400000e+04 
103.225  4.16400000e+04 
103.081  4.26400000e+04 
102.938  4.26400000e+04 
102.795  4.26400000e+04 
102.651  4.26400000e+04 
102.508  5.26400000e+04 
102.365  5.26400000e+04 
102.222  6.26400000e+04 
102.078  6.26400000e+04 
101.935  6.26400000e+04 
101.792  6.26400000e+04 
101.648  6.26400000e+04 
101.505  6.26400000e+04 
101.362  6.26400000e+04 
101.218  6.26400000e+04 
101.075  7.26400000e+04 
100.932  7.26400000e+04 
100.788  7.26400000e+04 
100.645  7.26400000e+04 
100.502  7.26400000e+04 
100.358  7.26400000e+04 
100.215  7.26400000e+04 
100.072  6.26400000e+04 
99.928   6.26400000e+04 
99.785   6.26400000e+04 
99.642   6.26400000e+04 
99.498   6.26400000e+04 
99.355   6.26400000e+04 
99.212   6.26400000e+04 
99.068   5.26400000e+04 
98.925   5.26400000e+04 
98.782   6.16400000e+04 
98.638   6.00400000e+04 
98.495   5.97400000e+04 
98.352   5.80400000e+04 
98.208   5.76400000e+04 
98.065   5.72400000e+04 
97.922   4.57400000e+04 
97.778   4.49400000e+04 
97.635   4.37400000e+04 
97.492   4.26400000e+04 
97.349   4.16400000e+04 
97.205   4.06400000e+04 
97.062   3.96400000e+04 
96.919   3.76400000e+04 
96.775   3.56400000e+04 
96.632   3.46400000e+04 
96.489   3.46400000e+04 
96.345   3.36400000e+04 
96.202   3.32400000e+04 
96.059   3.26400000e+04 
