EXPERIMENT FILE
Version = 2

[ Experiment Parameters ]
Experiment Description= <none> 
Number_of_Regions_in_Experiment= 1 

Original_File_name= c:\alexesca\data\detector\hr0-4703.xps 
Instrument= HP ESCA West
Date= 02-19-2006
Time=  18:25:04

[ Layer Parameters ]
Layer_Type= XPS

[ Region 1 Parameters ]
Region_Description = HR                                 
BEcenter(eV) = 820.000000
BEwidth(eV) = 220.000000
BEstep(eV) = 0.035938
Dwell_Time(sec) = 0.250000
N_o_scans = 1  
N_o_Channels = 6122  
Scan_mode = 0  (DITHERED)

[ L= 1 R= 1 ]
BEcenter= 820.000 
BEwidth= -219.973
Excitation= 1486.600
Time_p_channel= 64.000  
Size= 6122
929.987  1.31000000e+02 
929.951  1.20000000e+02 
929.915  1.48000000e+02 
929.879  1.36000000e+02 
929.843  1.19000000e+02 
929.807  1.18000000e+02 
929.771  1.03000000e+02 
929.735  1.29000000e+02 
929.699  1.30000000e+02 
929.663  1.33000000e+02 
929.627  1.30000000e+02 
929.591  1.18000000e+02 
929.555  1.09000000e+02 
929.520  1.09000000e+02 
929.484  1.17000000e+02 
929.448  1.10000000e+02 
929.412  1.21000000e+02 
929.376  1.25000000e+02 
929.340  1.18000000e+02 
929.304  1.25000000e+02 
929.268  1.29000000e+02 
929.232  1.21000000e+02 
929.196  1.33000000e+02 
929.160  1.13000000e+02 
929.124  1.10000000e+02 
929.088  1.25000000e+02 
929.052  1.22000000e+02 
929.016  1.13000000e+02 
928.980  1.29000000e+02 
928.945  1.36000000e+02 
928.909  1.19000000e+02 
928.873  1.23000000e+02 
928.837  1.30000000e+02 
928.801  1.32000000e+02 
928.765  1.22000000e+02 
928.729  1.33000000e+02 
928.693  1.21000000e+02 
928.657  1.37000000e+02 
928.621  1.19000000e+02 
928.585  1.08000000e+02 
928.549  1.16000000e+02 
928.513  1.46000000e+02 
928.477  1.13000000e+02 
928.441  1.36000000e+02 
928.405  1.02000000e+02 
928.370  1.19000000e+02 
928.334  1.43000000e+02 
928.298  1.29000000e+02 
928.262  1.20000000e+02 
928.226  1.13000000e+02 
928.190  1.32000000e+02 
928.154  1.08000000e+02 
928.118  1.03000000e+02 
928.082  1.19000000e+02 
928.046  1.09000000e+02 
928.010  1.35000000e+02 
927.974  1.09000000e+02 
927.938  1.30000000e+02 
927.902  1.06000000e+02 
927.866  1.26000000e+02 
927.830  1.32000000e+02 
927.795  1.33000000e+02 
927.759  1.32000000e+02 
927.723  1.14000000e+02 
927.687  1.45000000e+02 
927.651  1.14000000e+02 
927.615  1.18000000e+02 
927.579  1.28000000e+02 
927.543  1.29000000e+02 
927.507  1.27000000e+02 
927.471  1.05000000e+02 
927.435  1.12000000e+02 
927.399  1.18000000e+02 
927.363  1.33000000e+02 
927.327  1.09000000e+02 
927.291  1.11000000e+02 
927.255  1.26000000e+02 
927.220  1.22000000e+02 
927.184  1.22000000e+02 
927.148  1.40000000e+02 
927.112  1.24000000e+02 
927.076  1.16000000e+02 
927.040  1.32000000e+02 
927.004  1.01000000e+02 
926.968  1.08000000e+02 
926.932  1.06000000e+02 
926.896  1.15000000e+02 
926.860  1.21000000e+02 
926.824  1.35000000e+02 
926.788  1.33000000e+02 
926.752  1.14000000e+02 
926.716  1.12000000e+02 
926.680  1.23000000e+02 
926.645  1.18000000e+02 
926.609  1.23000000e+02 
926.573  1.09000000e+02 
926.537  1.27000000e+02 
926.501  1.14000000e+02 
926.465  1.25000000e+02 
926.429  1.20000000e+02 
926.393  1.32000000e+02 
926.357  1.30000000e+02 
926.321  1.14000000e+02 
926.285  1.01000000e+02 
926.249  1.21000000e+02 
926.213  1.12000000e+02 
926.177  1.28000000e+02 
926.141  1.24000000e+02 
926.105  1.06000000e+02 
926.070  1.36000000e+02 
926.034  1.12000000e+02 
925.998  1.13000000e+02 
925.962  1.26000000e+02 
925.926  1.19000000e+02 
925.890  1.16000000e+02 
925.854  1.10000000e+02 
925.818  1.30000000e+02 
925.782  1.29000000e+02 
925.746  1.12000000e+02 
925.710  1.12000000e+02 
925.674  1.13000000e+02 
925.638  1.27000000e+02 
925.602  1.04000000e+02 
925.566  1.17000000e+02 
925.530  1.23000000e+02 
925.495  1.27000000e+02 
925.459  1.19000000e+02 
925.423  1.09000000e+02 
925.387  1.25000000e+02 
925.351  1.26000000e+02 
925.315  1.32000000e+02 
925.279  1.16000000e+02 
925.243  1.18000000e+02 
925.207  1.42000000e+02 
925.171  1.31000000e+02 
925.135  1.15000000e+02 
925.099  9.10000000e+01 
925.063  1.18000000e+02 
925.027  1.28000000e+02 
924.991  1.10000000e+02 
924.955  1.11000000e+02 
924.920  1.11000000e+02 
924.884  1.35000000e+02 
924.848  1.24000000e+02 
924.812  1.20000000e+02 
924.776  1.23000000e+02 
924.740  1.22000000e+02 
924.704  1.27000000e+02 
924.668  1.31000000e+02 
924.632  1.26000000e+02 
924.596  1.25000000e+02 
924.560  1.48000000e+02 
924.524  1.07000000e+02 
924.488  1.26000000e+02 
924.452  1.26000000e+02 
924.416  1.27000000e+02 
924.380  1.30000000e+02 
924.345  1.15000000e+02 
924.309  1.16000000e+02 
924.273  1.24000000e+02 
924.237  1.24000000e+02 
924.201  1.24000000e+02 
924.165  1.22000000e+02 
924.129  1.22000000e+02 
924.093  1.20000000e+02 
924.057  1.24000000e+02 
924.021  1.12000000e+02 
923.985  1.30000000e+02 
923.949  1.30000000e+02 
923.913  1.29000000e+02 
923.877  1.34000000e+02 
923.841  1.16000000e+02 
923.805  1.33000000e+02 
923.770  1.21000000e+02 
923.734  1.44000000e+02 
923.698  1.16000000e+02 
923.662  1.11000000e+02 
923.626  1.19000000e+02 
923.590  1.16000000e+02 
923.554  1.17000000e+02 
923.518  1.13000000e+02 
923.482  9.90000000e+01 
923.446  1.27000000e+02 
923.410  1.35000000e+02 
923.374  1.04000000e+02 
923.338  1.27000000e+02 
923.302  1.21000000e+02 
923.266  1.30000000e+02 
923.230  1.16000000e+02 
923.195  1.28000000e+02 
923.159  1.21000000e+02 
923.123  1.02000000e+02 
923.087  1.32000000e+02 
923.051  1.08000000e+02 
923.015  1.17000000e+02 
922.979  1.26000000e+02 
922.943  1.32000000e+02 
922.907  1.19000000e+02 
922.871  1.17000000e+02 
922.835  1.32000000e+02 
922.799  1.25000000e+02 
922.763  1.09000000e+02 
922.727  1.12000000e+02 
922.691  1.12000000e+02 
922.655  1.25000000e+02 
922.620  1.38000000e+02 
922.584  1.28000000e+02 
922.548  1.04000000e+02 
922.512  9.70000000e+01 
922.476  1.26000000e+02 
922.440  1.22000000e+02 
922.404  1.16000000e+02 
922.368  1.27000000e+02 
922.332  1.00000000e+02 
922.296  1.27000000e+02 
922.260  1.11000000e+02 
922.224  1.13000000e+02 
922.188  1.15000000e+02 
922.152  1.16000000e+02 
922.116  1.28000000e+02 
922.080  1.11000000e+02 
922.045  1.18000000e+02 
922.009  1.12000000e+02 
921.973  1.29000000e+02 
921.937  1.21000000e+02 
921.901  1.21000000e+02 
921.865  1.32000000e+02 
921.829  1.11000000e+02 
921.793  1.17000000e+02 
921.757  1.24000000e+02 
921.721  1.14000000e+02 
921.685  1.32000000e+02 
921.649  1.18000000e+02 
921.613  1.00000000e+02 
921.577  1.24000000e+02 
921.541  1.18000000e+02 
921.505  1.42000000e+02 
921.470  1.02000000e+02 
921.434  1.01000000e+02 
921.398  1.26000000e+02 
921.362  9.80000000e+01 
921.326  1.18000000e+02 
921.290  1.17000000e+02 
921.254  1.03000000e+02 
921.218  1.46000000e+02 
921.182  1.09000000e+02 
921.146  1.09000000e+02 
921.110  1.19000000e+02 
921.074  1.21000000e+02 
921.038  1.04000000e+02 
921.002  1.33000000e+02 
920.966  1.17000000e+02 
920.930  1.35000000e+02 
920.895  1.19000000e+02 
920.859  1.11000000e+02 
920.823  1.38000000e+02 
920.787  1.23000000e+02 
920.751  1.03000000e+02 
920.715  1.11000000e+02 
920.679  1.21000000e+02 
920.643  1.22000000e+02 
920.607  1.04000000e+02 
920.571  1.05000000e+02 
920.535  1.28000000e+02 
920.499  1.14000000e+02 
920.463  1.21000000e+02 
920.427  1.19000000e+02 
920.391  1.23000000e+02 
920.355  1.24000000e+02 
920.320  1.35000000e+02 
920.284  1.25000000e+02 
920.248  1.20000000e+02 
920.212  1.21000000e+02 
920.176  1.29000000e+02 
920.140  1.30000000e+02 
920.104  1.17000000e+02 
920.068  1.28000000e+02 
920.032  1.28000000e+02 
919.996  1.36000000e+02 
919.960  1.28000000e+02 
919.924  1.26000000e+02 
919.888  1.10000000e+02 
919.852  1.23000000e+02 
919.816  9.50000000e+01 
919.780  1.19000000e+02 
919.745  1.31000000e+02 
919.709  1.17000000e+02 
919.673  1.16000000e+02 
919.637  1.23000000e+02 
919.601  1.24000000e+02 
919.565  1.15000000e+02 
919.529  1.27000000e+02 
919.493  1.26000000e+02 
919.457  1.16000000e+02 
919.421  1.21000000e+02 
919.385  1.29000000e+02 
919.349  9.40000000e+01 
919.313  1.39000000e+02 
919.277  1.17000000e+02 
919.241  1.27000000e+02 
919.205  1.16000000e+02 
919.170  1.27000000e+02 
919.134  1.08000000e+02 
919.098  1.22000000e+02 
919.062  1.09000000e+02 
919.026  1.19000000e+02 
918.990  1.10000000e+02 
918.954  1.14000000e+02 
918.918  1.12000000e+02 
918.882  1.25000000e+02 
918.846  1.14000000e+02 
918.810  1.31000000e+02 
918.774  1.03000000e+02 
918.738  1.17000000e+02 
918.702  1.26000000e+02 
918.666  1.19000000e+02 
918.630  1.29000000e+02 
918.595  1.01000000e+02 
918.559  1.44000000e+02 
918.523  1.06000000e+02 
918.487  1.18000000e+02 
918.451  9.90000000e+01 
918.415  1.23000000e+02 
918.379  1.26000000e+02 
918.343  1.30000000e+02 
918.307  1.18000000e+02 
918.271  1.22000000e+02 
918.235  1.13000000e+02 
918.199  9.80000000e+01 
918.163  1.13000000e+02 
918.127  1.12000000e+02 
918.091  1.04000000e+02 
918.055  1.11000000e+02 
918.020  1.22000000e+02 
917.984  1.04000000e+02 
917.948  1.26000000e+02 
917.912  1.22000000e+02 
917.876  1.19000000e+02 
917.840  1.04000000e+02 
917.804  1.11000000e+02 
917.768  1.30000000e+02 
917.732  1.22000000e+02 
917.696  1.45000000e+02 
917.660  1.29000000e+02 
917.624  1.35000000e+02 
917.588  1.19000000e+02 
917.552  1.17000000e+02 
917.516  1.19000000e+02 
917.480  1.42000000e+02 
917.445  1.10000000e+02 
917.409  1.21000000e+02 
917.373  1.16000000e+02 
917.337  1.13000000e+02 
917.301  1.23000000e+02 
917.265  9.80000000e+01 
917.229  9.50000000e+01 
917.193  1.28000000e+02 
917.157  1.33000000e+02 
917.121  1.34000000e+02 
917.085  1.09000000e+02 
917.049  1.00000000e+02 
917.013  1.15000000e+02 
916.977  1.17000000e+02 
916.941  1.12000000e+02 
916.905  1.08000000e+02 
916.870  1.08000000e+02 
916.834  1.24000000e+02 
916.798  1.15000000e+02 
916.762  1.19000000e+02 
916.726  1.27000000e+02 
916.690  9.60000000e+01 
916.654  1.44000000e+02 
916.618  1.04000000e+02 
916.582  1.09000000e+02 
916.546  1.20000000e+02 
916.510  1.13000000e+02 
916.474  1.12000000e+02 
916.438  1.09000000e+02 
916.402  1.41000000e+02 
916.366  1.18000000e+02 
916.330  1.17000000e+02 
916.295  1.25000000e+02 
916.259  1.36000000e+02 
916.223  1.09000000e+02 
916.187  1.23000000e+02 
916.151  1.16000000e+02 
916.115  1.12000000e+02 
916.079  1.16000000e+02 
916.043  1.13000000e+02 
916.007  1.05000000e+02 
915.971  1.24000000e+02 
915.935  1.30000000e+02 
915.899  1.24000000e+02 
915.863  1.14000000e+02 
915.827  1.33000000e+02 
915.791  1.12000000e+02 
915.755  1.18000000e+02 
915.720  1.34000000e+02 
915.684  1.21000000e+02 
915.648  1.42000000e+02 
915.612  1.28000000e+02 
915.576  1.32000000e+02 
915.540  1.11000000e+02 
915.504  1.21000000e+02 
915.468  1.20000000e+02 
915.432  8.60000000e+01 
915.396  1.26000000e+02 
915.360  1.27000000e+02 
915.324  1.25000000e+02 
915.288  1.36000000e+02 
915.252  1.23000000e+02 
915.216  1.06000000e+02 
915.180  1.31000000e+02 
915.145  1.32000000e+02 
915.109  1.11000000e+02 
915.073  9.40000000e+01 
915.037  1.23000000e+02 
915.001  1.05000000e+02 
914.965  1.14000000e+02 
914.929  1.12000000e+02 
914.893  1.08000000e+02 
914.857  1.11000000e+02 
914.821  1.40000000e+02 
914.785  1.17000000e+02 
914.749  1.15000000e+02 
914.713  1.30000000e+02 
914.677  1.23000000e+02 
914.641  1.13000000e+02 
914.605  1.08000000e+02 
914.570  1.11000000e+02 
914.534  1.14000000e+02 
914.498  1.24000000e+02 
914.462  1.10000000e+02 
914.426  1.49000000e+02 
914.390  1.18000000e+02 
914.354  1.02000000e+02 
914.318  1.10000000e+02 
914.282  1.28000000e+02 
914.246  1.28000000e+02 
914.210  1.14000000e+02 
914.174  1.23000000e+02 
914.138  1.26000000e+02 
914.102  1.24000000e+02 
914.066  1.23000000e+02 
914.030  1.38000000e+02 
913.995  1.11000000e+02 
913.959  1.26000000e+02 
913.923  1.02000000e+02 
913.887  1.24000000e+02 
913.851  1.38000000e+02 
913.815  1.32000000e+02 
913.779  1.22000000e+02 
913.743  1.29000000e+02 
913.707  1.17000000e+02 
913.671  1.13000000e+02 
913.635  1.31000000e+02 
913.599  1.23000000e+02 
913.563  1.18000000e+02 
913.527  1.10000000e+02 
913.491  1.32000000e+02 
913.455  1.18000000e+02 
913.420  1.29000000e+02 
913.384  1.26000000e+02 
913.348  1.24000000e+02 
913.312  1.41000000e+02 
913.276  1.17000000e+02 
913.240  1.24000000e+02 
913.204  1.31000000e+02 
913.168  1.08000000e+02 
913.132  1.24000000e+02 
913.096  1.31000000e+02 
913.060  1.11000000e+02 
913.024  1.04000000e+02 
912.988  1.25000000e+02 
912.952  1.16000000e+02 
912.916  1.12000000e+02 
912.880  1.27000000e+02 
912.845  1.23000000e+02 
912.809  1.04000000e+02 
912.773  1.12000000e+02 
912.737  1.31000000e+02 
912.701  1.29000000e+02 
912.665  1.32000000e+02 
912.629  1.29000000e+02 
912.593  1.15000000e+02 
912.557  1.15000000e+02 
912.521  9.90000000e+01 
912.485  1.00000000e+02 
912.449  1.19000000e+02 
912.413  1.12000000e+02 
912.377  1.33000000e+02 
912.341  1.36000000e+02 
912.305  1.19000000e+02 
912.270  1.25000000e+02 
912.234  1.03000000e+02 
912.198  1.18000000e+02 
912.162  1.14000000e+02 
912.126  1.12000000e+02 
912.090  1.33000000e+02 
912.054  1.11000000e+02 
912.018  1.16000000e+02 
911.982  1.19000000e+02 
911.946  1.25000000e+02 
911.910  1.13000000e+02 
911.874  1.44000000e+02 
911.838  1.07000000e+02 
911.802  1.22000000e+02 
911.766  1.29000000e+02 
911.730  1.11000000e+02 
911.695  1.11000000e+02 
911.659  1.04000000e+02 
911.623  1.25000000e+02 
911.587  1.17000000e+02 
911.551  1.07000000e+02 
911.515  1.14000000e+02 
911.479  1.19000000e+02 
911.443  1.05000000e+02 
911.407  1.02000000e+02 
911.371  1.23000000e+02 
911.335  1.37000000e+02 
911.299  1.34000000e+02 
911.263  1.21000000e+02 
911.227  1.25000000e+02 
911.191  1.14000000e+02 
911.155  1.23000000e+02 
911.120  1.26000000e+02 
911.084  1.20000000e+02 
911.048  1.16000000e+02 
911.012  1.19000000e+02 
910.976  1.34000000e+02 
910.940  1.20000000e+02 
910.904  1.10000000e+02 
910.868  8.90000000e+01 
910.832  1.41000000e+02 
910.796  1.13000000e+02 
910.760  1.13000000e+02 
910.724  1.16000000e+02 
910.688  1.13000000e+02 
910.652  1.19000000e+02 
910.616  9.80000000e+01 
910.580  1.18000000e+02 
910.545  1.12000000e+02 
910.509  1.29000000e+02 
910.473  1.16000000e+02 
910.437  1.24000000e+02 
910.401  1.18000000e+02 
910.365  1.38000000e+02 
910.329  1.28000000e+02 
910.293  1.07000000e+02 
910.257  1.04000000e+02 
910.221  1.39000000e+02 
910.185  9.90000000e+01 
910.149  1.37000000e+02 
910.113  1.26000000e+02 
910.077  1.17000000e+02 
910.041  1.04000000e+02 
910.005  1.03000000e+02 
909.970  1.02000000e+02 
909.934  1.15000000e+02 
909.898  1.01000000e+02 
909.862  1.33000000e+02 
909.826  1.23000000e+02 
909.790  1.34000000e+02 
909.754  1.24000000e+02 
909.718  1.02000000e+02 
909.682  1.34000000e+02 
909.646  9.70000000e+01 
909.610  1.17000000e+02 
909.574  1.15000000e+02 
909.538  1.15000000e+02 
909.502  1.24000000e+02 
909.466  1.23000000e+02 
909.430  1.08000000e+02 
909.395  1.06000000e+02 
909.359  1.25000000e+02 
909.323  1.16000000e+02 
909.287  1.28000000e+02 
909.251  9.30000000e+01 
909.215  1.24000000e+02 
909.179  1.15000000e+02 
909.143  1.13000000e+02 
909.107  1.13000000e+02 
909.071  1.17000000e+02 
909.035  1.05000000e+02 
908.999  1.15000000e+02 
908.963  9.60000000e+01 
908.927  1.15000000e+02 
908.891  1.28000000e+02 
908.855  1.34000000e+02 
908.820  1.20000000e+02 
908.784  1.25000000e+02 
908.748  1.19000000e+02 
908.712  9.30000000e+01 
908.676  1.23000000e+02 
908.640  1.25000000e+02 
908.604  1.18000000e+02 
908.568  1.19000000e+02 
908.532  1.09000000e+02 
908.496  1.32000000e+02 
908.460  1.14000000e+02 
908.424  1.30000000e+02 
908.388  1.39000000e+02 
908.352  1.19000000e+02 
908.316  1.22000000e+02 
908.280  1.13000000e+02 
908.245  1.16000000e+02 
908.209  1.31000000e+02 
908.173  1.24000000e+02 
908.137  1.34000000e+02 
908.101  1.28000000e+02 
908.065  1.26000000e+02 
908.029  1.26000000e+02 
907.993  1.04000000e+02 
907.957  1.23000000e+02 
907.921  1.28000000e+02 
907.885  1.14000000e+02 
907.849  1.18000000e+02 
907.813  1.11000000e+02 
907.777  1.36000000e+02 
907.741  1.25000000e+02 
907.705  1.17000000e+02 
907.670  1.26000000e+02 
907.634  1.23000000e+02 
907.598  1.29000000e+02 
907.562  1.21000000e+02 
907.526  1.20000000e+02 
907.490  1.21000000e+02 
907.454  1.10000000e+02 
907.418  1.32000000e+02 
907.382  1.12000000e+02 
907.346  1.30000000e+02 
907.310  1.16000000e+02 
907.274  1.08000000e+02 
907.238  1.20000000e+02 
907.202  1.45000000e+02 
907.166  1.32000000e+02 
907.130  1.20000000e+02 
907.095  1.20000000e+02 
907.059  1.21000000e+02 
907.023  1.07000000e+02 
906.987  1.09000000e+02 
906.951  1.05000000e+02 
906.915  1.43000000e+02 
906.879  1.39000000e+02 
906.843  1.26000000e+02 
906.807  1.15000000e+02 
906.771  9.90000000e+01 
906.735  1.35000000e+02 
906.699  1.21000000e+02 
906.663  1.38000000e+02 
906.627  1.21000000e+02 
906.591  1.22000000e+02 
906.555  1.08000000e+02 
906.520  1.33000000e+02 
906.484  1.33000000e+02 
906.448  1.16000000e+02 
906.412  1.43000000e+02 
906.376  1.08000000e+02 
906.340  1.28000000e+02 
906.304  1.26000000e+02 
906.268  1.08000000e+02 
906.232  1.25000000e+02 
906.196  1.19000000e+02 
906.160  1.17000000e+02 
906.124  1.23000000e+02 
906.088  1.33000000e+02 
906.052  1.39000000e+02 
906.016  1.13000000e+02 
905.980  1.22000000e+02 
905.945  1.15000000e+02 
905.909  1.24000000e+02 
905.873  1.22000000e+02 
905.837  1.27000000e+02 
905.801  1.33000000e+02 
905.765  1.16000000e+02 
905.729  1.19000000e+02 
905.693  1.05000000e+02 
905.657  1.05000000e+02 
905.621  1.13000000e+02 
905.585  1.14000000e+02 
905.549  1.27000000e+02 
905.513  1.23000000e+02 
905.477  1.30000000e+02 
905.441  1.26000000e+02 
905.405  1.03000000e+02 
905.370  1.32000000e+02 
905.334  1.19000000e+02 
905.298  1.15000000e+02 
905.262  1.43000000e+02 
905.226  1.21000000e+02 
905.190  9.50000000e+01 
905.154  1.08000000e+02 
905.118  1.01000000e+02 
905.082  1.07000000e+02 
905.046  9.30000000e+01 
905.010  1.20000000e+02 
904.974  1.22000000e+02 
904.938  1.16000000e+02 
904.902  1.35000000e+02 
904.866  1.22000000e+02 
904.830  1.37000000e+02 
904.795  9.90000000e+01 
904.759  1.24000000e+02 
904.723  1.39000000e+02 
904.687  1.23000000e+02 
904.651  1.27000000e+02 
904.615  1.03000000e+02 
904.579  1.00000000e+02 
904.543  1.20000000e+02 
904.507  1.13000000e+02 
904.471  1.20000000e+02 
904.435  1.17000000e+02 
904.399  1.12000000e+02 
904.363  1.15000000e+02 
904.327  1.24000000e+02 
904.291  1.05000000e+02 
904.255  1.07000000e+02 
904.220  1.07000000e+02 
904.184  1.25000000e+02 
904.148  1.15000000e+02 
904.112  1.15000000e+02 
904.076  1.30000000e+02 
904.040  1.02000000e+02 
904.004  1.22000000e+02 
903.968  1.34000000e+02 
903.932  1.15000000e+02 
903.896  1.44000000e+02 
903.860  1.31000000e+02 
903.824  1.31000000e+02 
903.788  9.40000000e+01 
903.752  1.05000000e+02 
903.716  1.24000000e+02 
903.680  1.36000000e+02 
903.645  1.23000000e+02 
903.609  1.30000000e+02 
903.573  1.07000000e+02 
903.537  1.37000000e+02 
903.501  1.18000000e+02 
903.465  1.22000000e+02 
903.429  1.14000000e+02 
903.393  1.17000000e+02 
903.357  1.13000000e+02 
903.321  1.41000000e+02 
903.285  1.21000000e+02 
903.249  1.08000000e+02 
903.213  1.19000000e+02 
903.177  1.03000000e+02 
903.141  1.13000000e+02 
903.105  1.15000000e+02 
903.070  1.27000000e+02 
903.034  1.42000000e+02 
902.998  1.11000000e+02 
902.962  1.17000000e+02 
902.926  1.24000000e+02 
902.890  1.18000000e+02 
902.854  1.27000000e+02 
902.818  9.90000000e+01 
902.782  1.17000000e+02 
902.746  1.25000000e+02 
902.710  1.23000000e+02 
902.674  1.19000000e+02 
902.638  1.03000000e+02 
902.602  1.15000000e+02 
902.566  1.16000000e+02 
902.530  1.11000000e+02 
902.495  1.20000000e+02 
902.459  1.29000000e+02 
902.423  1.14000000e+02 
902.387  1.16000000e+02 
902.351  1.40000000e+02 
902.315  1.08000000e+02 
902.279  1.32000000e+02 
902.243  1.29000000e+02 
902.207  1.11000000e+02 
902.171  1.39000000e+02 
902.135  1.13000000e+02 
902.099  1.17000000e+02 
902.063  1.28000000e+02 
902.027  1.23000000e+02 
901.991  1.29000000e+02 
901.955  1.19000000e+02 
901.920  1.10000000e+02 
901.884  1.19000000e+02 
901.848  1.29000000e+02 
901.812  1.12000000e+02 
901.776  1.25000000e+02 
901.740  1.17000000e+02 
901.704  1.04000000e+02 
901.668  1.22000000e+02 
901.632  1.11000000e+02 
901.596  1.11000000e+02 
901.560  1.32000000e+02 
901.524  1.36000000e+02 
901.488  1.18000000e+02 
901.452  1.09000000e+02 
901.416  9.40000000e+01 
901.380  1.18000000e+02 
901.345  1.17000000e+02 
901.309  9.90000000e+01 
901.273  1.26000000e+02 
901.237  1.27000000e+02 
901.201  1.13000000e+02 
901.165  1.07000000e+02 
901.129  1.25000000e+02 
901.093  1.06000000e+02 
901.057  1.24000000e+02 
901.021  1.18000000e+02 
900.985  1.10000000e+02 
900.949  1.04000000e+02 
900.913  1.12000000e+02 
900.877  1.35000000e+02 
900.841  1.23000000e+02 
900.805  1.27000000e+02 
900.770  1.19000000e+02 
900.734  1.08000000e+02 
900.698  1.15000000e+02 
900.662  1.25000000e+02 
900.626  1.10000000e+02 
900.590  1.29000000e+02 
900.554  1.14000000e+02 
900.518  1.22000000e+02 
900.482  1.14000000e+02 
900.446  1.28000000e+02 
900.410  1.36000000e+02 
900.374  1.39000000e+02 
900.338  1.14000000e+02 
900.302  1.20000000e+02 
900.266  1.11000000e+02 
900.230  1.09000000e+02 
900.195  1.16000000e+02 
900.159  1.33000000e+02 
900.123  1.50000000e+02 
900.087  1.30000000e+02 
900.051  1.13000000e+02 
900.015  1.17000000e+02 
899.979  1.18000000e+02 
899.943  9.80000000e+01 
899.907  1.08000000e+02 
899.871  1.30000000e+02 
899.835  1.23000000e+02 
899.799  1.01000000e+02 
899.763  1.11000000e+02 
899.727  9.10000000e+01 
899.691  1.03000000e+02 
899.655  1.16000000e+02 
899.620  1.16000000e+02 
899.584  1.24000000e+02 
899.548  1.27000000e+02 
899.512  1.21000000e+02 
899.476  1.16000000e+02 
899.440  1.27000000e+02 
899.404  1.05000000e+02 
899.368  1.24000000e+02 
899.332  1.07000000e+02 
899.296  1.20000000e+02 
899.260  1.11000000e+02 
899.224  1.08000000e+02 
899.188  1.25000000e+02 
899.152  1.15000000e+02 
899.116  1.10000000e+02 
899.080  1.14000000e+02 
899.045  1.03000000e+02 
899.009  9.80000000e+01 
898.973  1.25000000e+02 
898.937  1.26000000e+02 
898.901  1.18000000e+02 
898.865  1.36000000e+02 
898.829  1.24000000e+02 
898.793  1.31000000e+02 
898.757  1.13000000e+02 
898.721  1.29000000e+02 
898.685  1.22000000e+02 
898.649  1.13000000e+02 
898.613  9.50000000e+01 
898.577  1.19000000e+02 
898.541  1.14000000e+02 
898.505  1.19000000e+02 
898.470  1.27000000e+02 
898.434  1.00000000e+02 
898.398  1.29000000e+02 
898.362  1.01000000e+02 
898.326  1.13000000e+02 
898.290  1.35000000e+02 
898.254  1.12000000e+02 
898.218  1.28000000e+02 
898.182  1.33000000e+02 
898.146  1.14000000e+02 
898.110  9.70000000e+01 
898.074  1.23000000e+02 
898.038  1.17000000e+02 
898.002  1.34000000e+02 
897.966  1.23000000e+02 
897.930  1.04000000e+02 
897.895  1.13000000e+02 
897.859  1.18000000e+02 
897.823  1.22000000e+02 
897.787  1.23000000e+02 
897.751  9.20000000e+01 
897.715  1.21000000e+02 
897.679  1.02000000e+02 
897.643  1.06000000e+02 
897.607  1.17000000e+02 
897.571  1.14000000e+02 
897.535  1.19000000e+02 
897.499  1.12000000e+02 
897.463  1.32000000e+02 
897.427  1.17000000e+02 
897.391  1.22000000e+02 
897.355  1.23000000e+02 
897.320  1.27000000e+02 
897.284  1.32000000e+02 
897.248  1.34000000e+02 
897.212  1.13000000e+02 
897.176  1.25000000e+02 
897.140  1.04000000e+02 
897.104  1.03000000e+02 
897.068  1.17000000e+02 
897.032  1.18000000e+02 
896.996  1.21000000e+02 
896.960  1.38000000e+02 
896.924  1.21000000e+02 
896.888  1.20000000e+02 
896.852  1.18000000e+02 
896.816  1.07000000e+02 
896.780  1.24000000e+02 
896.745  1.27000000e+02 
896.709  1.29000000e+02 
896.673  1.27000000e+02 
896.637  1.15000000e+02 
896.601  1.13000000e+02 
896.565  1.24000000e+02 
896.529  1.11000000e+02 
896.493  1.24000000e+02 
896.457  1.16000000e+02 
896.421  1.25000000e+02 
896.385  1.38000000e+02 
896.349  1.19000000e+02 
896.313  1.17000000e+02 
896.277  1.12000000e+02 
896.241  9.90000000e+01 
896.205  1.15000000e+02 
896.170  1.12000000e+02 
896.134  1.25000000e+02 
896.098  1.38000000e+02 
896.062  9.60000000e+01 
896.026  1.15000000e+02 
895.990  1.19000000e+02 
895.954  1.20000000e+02 
895.918  1.17000000e+02 
895.882  1.45000000e+02 
895.846  1.23000000e+02 
895.810  1.11000000e+02 
895.774  1.22000000e+02 
895.738  1.03000000e+02 
895.702  1.18000000e+02 
895.666  1.22000000e+02 
895.630  1.22000000e+02 
895.595  1.16000000e+02 
895.559  1.15000000e+02 
895.523  1.09000000e+02 
895.487  1.10000000e+02 
895.451  1.07000000e+02 
895.415  1.18000000e+02 
895.379  1.14000000e+02 
895.343  1.22000000e+02 
895.307  1.25000000e+02 
895.271  1.34000000e+02 
895.235  1.19000000e+02 
895.199  1.08000000e+02 
895.163  1.15000000e+02 
895.127  1.36000000e+02 
895.091  1.22000000e+02 
895.055  1.12000000e+02 
895.020  1.19000000e+02 
894.984  1.00000000e+02 
894.948  1.27000000e+02 
894.912  1.22000000e+02 
894.876  1.31000000e+02 
894.840  1.05000000e+02 
894.804  1.08000000e+02 
894.768  1.23000000e+02 
894.732  1.29000000e+02 
894.696  1.05000000e+02 
894.660  1.37000000e+02 
894.624  1.20000000e+02 
894.588  1.18000000e+02 
894.552  1.22000000e+02 
894.516  1.23000000e+02 
894.480  1.18000000e+02 
894.445  1.25000000e+02 
894.409  1.24000000e+02 
894.373  1.00000000e+02 
894.337  1.29000000e+02 
894.301  1.05000000e+02 
894.265  1.32000000e+02 
894.229  1.14000000e+02 
894.193  9.50000000e+01 
894.157  1.37000000e+02 
894.121  1.06000000e+02 
894.085  1.13000000e+02 
894.049  1.23000000e+02 
894.013  1.05000000e+02 
893.977  1.22000000e+02 
893.941  9.70000000e+01 
893.905  1.01000000e+02 
893.870  1.16000000e+02 
893.834  1.13000000e+02 
893.798  1.11000000e+02 
893.762  1.10000000e+02 
893.726  1.15000000e+02 
893.690  1.07000000e+02 
893.654  1.10000000e+02 
893.618  1.16000000e+02 
893.582  1.14000000e+02 
893.546  1.35000000e+02 
893.510  1.29000000e+02 
893.474  9.90000000e+01 
893.438  1.10000000e+02 
893.402  1.24000000e+02 
893.366  1.18000000e+02 
893.330  1.21000000e+02 
893.295  1.14000000e+02 
893.259  1.15000000e+02 
893.223  1.23000000e+02 
893.187  1.33000000e+02 
893.151  1.23000000e+02 
893.115  9.60000000e+01 
893.079  1.13000000e+02 
893.043  1.24000000e+02 
893.007  1.27000000e+02 
892.971  8.70000000e+01 
892.935  1.17000000e+02 
892.899  1.21000000e+02 
892.863  1.25000000e+02 
892.827  1.18000000e+02 
892.791  1.19000000e+02 
892.755  1.29000000e+02 
892.720  1.11000000e+02 
892.684  9.80000000e+01 
892.648  1.28000000e+02 
892.612  1.02000000e+02 
892.576  1.14000000e+02 
892.540  1.06000000e+02 
892.504  1.04000000e+02 
892.468  1.08000000e+02 
892.432  1.17000000e+02 
892.396  1.08000000e+02 
892.360  1.25000000e+02 
892.324  9.60000000e+01 
892.288  1.21000000e+02 
892.252  9.60000000e+01 
892.216  1.02000000e+02 
892.180  1.15000000e+02 
892.145  1.26000000e+02 
892.109  1.03000000e+02 
892.073  1.11000000e+02 
892.037  1.14000000e+02 
892.001  1.14000000e+02 
891.965  1.05000000e+02 
891.929  1.36000000e+02 
891.893  1.01000000e+02 
891.857  1.00000000e+02 
891.821  1.02000000e+02 
891.785  1.13000000e+02 
891.749  1.22000000e+02 
891.713  1.15000000e+02 
891.677  1.03000000e+02 
891.641  1.18000000e+02 
891.605  1.25000000e+02 
891.570  9.50000000e+01 
891.534  9.80000000e+01 
891.498  9.40000000e+01 
891.462  1.16000000e+02 
891.426  1.02000000e+02 
891.390  1.27000000e+02 
891.354  1.26000000e+02 
891.318  1.06000000e+02 
891.282  1.14000000e+02 
891.246  1.15000000e+02 
891.210  1.19000000e+02 
891.174  1.28000000e+02 
891.138  1.14000000e+02 
891.102  1.24000000e+02 
891.066  1.01000000e+02 
891.030  1.18000000e+02 
890.995  1.14000000e+02 
890.959  1.09000000e+02 
890.923  9.50000000e+01 
890.887  1.24000000e+02 
890.851  1.18000000e+02 
890.815  1.27000000e+02 
890.779  1.05000000e+02 
890.743  1.05000000e+02 
890.707  1.02000000e+02 
890.671  1.18000000e+02 
890.635  1.19000000e+02 
890.599  1.20000000e+02 
890.563  1.12000000e+02 
890.527  9.40000000e+01 
890.491  1.17000000e+02 
890.455  1.04000000e+02 
890.420  1.10000000e+02 
890.384  1.07000000e+02 
890.348  1.17000000e+02 
890.312  1.20000000e+02 
890.276  1.04000000e+02 
890.240  1.23000000e+02 
890.204  1.29000000e+02 
890.168  1.05000000e+02 
890.132  9.90000000e+01 
890.096  1.30000000e+02 
890.060  1.11000000e+02 
890.024  9.50000000e+01 
889.988  1.37000000e+02 
889.952  1.29000000e+02 
889.916  9.90000000e+01 
889.880  1.12000000e+02 
889.845  1.32000000e+02 
889.809  1.33000000e+02 
889.773  1.37000000e+02 
889.737  1.13000000e+02 
889.701  1.23000000e+02 
889.665  1.22000000e+02 
889.629  1.05000000e+02 
889.593  1.07000000e+02 
889.557  1.11000000e+02 
889.521  1.26000000e+02 
889.485  1.20000000e+02 
889.449  1.25000000e+02 
889.413  1.06000000e+02 
889.377  1.03000000e+02 
889.341  1.24000000e+02 
889.305  1.17000000e+02 
889.270  1.35000000e+02 
889.234  1.43000000e+02 
889.198  1.01000000e+02 
889.162  1.10000000e+02 
889.126  1.09000000e+02 
889.090  1.14000000e+02 
889.054  9.40000000e+01 
889.018  1.34000000e+02 
888.982  1.06000000e+02 
888.946  1.23000000e+02 
888.910  1.16000000e+02 
888.874  1.30000000e+02 
888.838  1.29000000e+02 
888.802  1.14000000e+02 
888.766  1.08000000e+02 
888.730  9.70000000e+01 
888.695  1.17000000e+02 
888.659  1.22000000e+02 
888.623  1.03000000e+02 
888.587  1.22000000e+02 
888.551  1.06000000e+02 
888.515  1.21000000e+02 
888.479  1.31000000e+02 
888.443  1.14000000e+02 
888.407  1.34000000e+02 
888.371  1.05000000e+02 
888.335  1.27000000e+02 
888.299  1.05000000e+02 
888.263  1.15000000e+02 
888.227  1.16000000e+02 
888.191  1.37000000e+02 
888.155  1.03000000e+02 
888.120  9.70000000e+01 
888.084  1.02000000e+02 
888.048  1.05000000e+02 
888.012  1.13000000e+02 
887.976  1.21000000e+02 
887.940  1.15000000e+02 
887.904  1.04000000e+02 
887.868  1.13000000e+02 
887.832  1.14000000e+02 
887.796  1.13000000e+02 
887.760  1.21000000e+02 
887.724  1.08000000e+02 
887.688  1.01000000e+02 
887.652  1.21000000e+02 
887.616  1.17000000e+02 
887.580  1.13000000e+02 
887.545  1.18000000e+02 
887.509  1.09000000e+02 
887.473  1.17000000e+02 
887.437  1.20000000e+02 
887.401  1.07000000e+02 
887.365  9.70000000e+01 
887.329  1.14000000e+02 
887.293  1.24000000e+02 
887.257  1.29000000e+02 
887.221  1.34000000e+02 
887.185  1.17000000e+02 
887.149  1.12000000e+02 
887.113  1.26000000e+02 
887.077  1.05000000e+02 
887.041  1.17000000e+02 
887.005  1.09000000e+02 
886.970  1.11000000e+02 
886.934  1.35000000e+02 
886.898  1.29000000e+02 
886.862  1.29000000e+02 
886.826  1.03000000e+02 
886.790  1.21000000e+02 
886.754  1.02000000e+02 
886.718  1.04000000e+02 
886.682  1.10000000e+02 
886.646  1.14000000e+02 
886.610  1.02000000e+02 
886.574  1.06000000e+02 
886.538  1.09000000e+02 
886.502  1.15000000e+02 
886.466  1.14000000e+02 
886.430  1.33000000e+02 
886.395  1.00000000e+02 
886.359  1.10000000e+02 
886.323  1.08000000e+02 
886.287  1.12000000e+02 
886.251  1.06000000e+02 
886.215  1.27000000e+02 
886.179  1.19000000e+02 
886.143  1.11000000e+02 
886.107  1.25000000e+02 
886.071  1.08000000e+02 
886.035  9.60000000e+01 
885.999  1.16000000e+02 
885.963  1.30000000e+02 
885.927  1.01000000e+02 
885.891  1.18000000e+02 
885.855  1.29000000e+02 
885.820  1.13000000e+02 
885.784  1.07000000e+02 
885.748  1.17000000e+02 
885.712  1.09000000e+02 
885.676  1.03000000e+02 
885.640  1.05000000e+02 
885.604  1.17000000e+02 
885.568  1.21000000e+02 
885.532  1.11000000e+02 
885.496  9.80000000e+01 
885.460  1.26000000e+02 
885.424  1.12000000e+02 
885.388  1.17000000e+02 
885.352  1.05000000e+02 
885.316  1.17000000e+02 
885.280  1.16000000e+02 
885.245  1.27000000e+02 
885.209  1.01000000e+02 
885.173  1.03000000e+02 
885.137  1.04000000e+02 
885.101  1.12000000e+02 
885.065  1.02000000e+02 
885.029  9.70000000e+01 
884.993  1.20000000e+02 
884.957  1.30000000e+02 
884.921  1.24000000e+02 
884.885  1.11000000e+02 
884.849  1.14000000e+02 
884.813  1.18000000e+02 
884.777  1.29000000e+02 
884.741  1.13000000e+02 
884.705  1.18000000e+02 
884.670  1.09000000e+02 
884.634  1.22000000e+02 
884.598  1.36000000e+02 
884.562  1.15000000e+02 
884.526  1.04000000e+02 
884.490  9.50000000e+01 
884.454  1.02000000e+02 
884.418  9.90000000e+01 
884.382  1.15000000e+02 
884.346  1.27000000e+02 
884.310  1.06000000e+02 
884.274  1.34000000e+02 
884.238  1.18000000e+02 
884.202  1.22000000e+02 
884.166  1.18000000e+02 
884.130  1.16000000e+02 
884.095  1.15000000e+02 
884.059  1.10000000e+02 
884.023  1.16000000e+02 
883.987  1.12000000e+02 
883.951  1.00000000e+02 
883.915  1.29000000e+02 
883.879  1.11000000e+02 
883.843  1.09000000e+02 
883.807  1.23000000e+02 
883.771  1.14000000e+02 
883.735  1.05000000e+02 
883.699  1.15000000e+02 
883.663  1.02000000e+02 
883.627  1.08000000e+02 
883.591  1.11000000e+02 
883.555  1.10000000e+02 
883.520  1.12000000e+02 
883.484  1.22000000e+02 
883.448  1.11000000e+02 
883.412  1.22000000e+02 
883.376  1.12000000e+02 
883.340  1.01000000e+02 
883.304  1.24000000e+02 
883.268  1.06000000e+02 
883.232  1.10000000e+02 
883.196  1.27000000e+02 
883.160  8.60000000e+01 
883.124  1.27000000e+02 
883.088  1.01000000e+02 
883.052  1.16000000e+02 
883.016  1.22000000e+02 
882.980  1.10000000e+02 
882.945  1.09000000e+02 
882.909  1.06000000e+02 
882.873  1.13000000e+02 
882.837  9.30000000e+01 
882.801  9.40000000e+01 
882.765  1.16000000e+02 
882.729  1.00000000e+02 
882.693  1.07000000e+02 
882.657  1.30000000e+02 
882.621  1.16000000e+02 
882.585  1.12000000e+02 
882.549  1.10000000e+02 
882.513  1.39000000e+02 
882.477  9.80000000e+01 
882.441  1.15000000e+02 
882.405  1.05000000e+02 
882.370  1.17000000e+02 
882.334  1.18000000e+02 
882.298  1.07000000e+02 
882.262  1.18000000e+02 
882.226  1.18000000e+02 
882.190  1.03000000e+02 
882.154  1.10000000e+02 
882.118  1.28000000e+02 
882.082  1.11000000e+02 
882.046  1.05000000e+02 
882.010  1.14000000e+02 
881.974  1.04000000e+02 
881.938  1.06000000e+02 
881.902  1.14000000e+02 
881.866  8.80000000e+01 
881.830  1.11000000e+02 
881.795  1.12000000e+02 
881.759  1.05000000e+02 
881.723  1.15000000e+02 
881.687  9.60000000e+01 
881.651  1.12000000e+02 
881.615  1.31000000e+02 
881.579  9.60000000e+01 
881.543  1.13000000e+02 
881.507  1.11000000e+02 
881.471  1.01000000e+02 
881.435  1.07000000e+02 
881.399  1.07000000e+02 
881.363  1.20000000e+02 
881.327  1.30000000e+02 
881.291  1.17000000e+02 
881.255  1.21000000e+02 
881.220  1.17000000e+02 
881.184  1.08000000e+02 
881.148  1.12000000e+02 
881.112  1.22000000e+02 
881.076  9.10000000e+01 
881.040  1.28000000e+02 
881.004  1.11000000e+02 
880.968  1.09000000e+02 
880.932  1.25000000e+02 
880.896  1.12000000e+02 
880.860  1.19000000e+02 
880.824  1.41000000e+02 
880.788  1.29000000e+02 
880.752  1.05000000e+02 
880.716  1.07000000e+02 
880.680  1.17000000e+02 
880.645  1.24000000e+02 
880.609  1.10000000e+02 
880.573  1.11000000e+02 
880.537  1.13000000e+02 
880.501  1.15000000e+02 
880.465  1.20000000e+02 
880.429  1.03000000e+02 
880.393  1.01000000e+02 
880.357  1.26000000e+02 
880.321  1.10000000e+02 
880.285  1.20000000e+02 
880.249  1.33000000e+02 
880.213  1.35000000e+02 
880.177  1.14000000e+02 
880.141  1.01000000e+02 
880.105  9.90000000e+01 
880.070  1.16000000e+02 
880.034  1.19000000e+02 
879.998  9.30000000e+01 
879.962  1.11000000e+02 
879.926  1.31000000e+02 
879.890  1.19000000e+02 
879.854  9.20000000e+01 
879.818  1.13000000e+02 
879.782  9.80000000e+01 
879.746  1.19000000e+02 
879.710  1.13000000e+02 
879.674  1.23000000e+02 
879.638  1.13000000e+02 
879.602  1.30000000e+02 
879.566  1.22000000e+02 
879.530  9.40000000e+01 
879.495  1.07000000e+02 
879.459  9.00000000e+01 
879.423  1.10000000e+02 
879.387  1.09000000e+02 
879.351  1.06000000e+02 
879.315  9.80000000e+01 
879.279  1.08000000e+02 
879.243  1.21000000e+02 
879.207  1.23000000e+02 
879.171  1.12000000e+02 
879.135  1.18000000e+02 
879.099  1.20000000e+02 
879.063  1.03000000e+02 
879.027  8.80000000e+01 
878.991  1.07000000e+02 
878.955  1.25000000e+02 
878.920  1.02000000e+02 
878.884  1.14000000e+02 
878.848  1.12000000e+02 
878.812  9.00000000e+01 
878.776  1.01000000e+02 
878.740  1.05000000e+02 
878.704  1.23000000e+02 
878.668  1.06000000e+02 
878.632  1.14000000e+02 
878.596  1.14000000e+02 
878.560  1.21000000e+02 
878.524  1.15000000e+02 
878.488  1.07000000e+02 
878.452  1.03000000e+02 
878.416  1.07000000e+02 
878.380  1.26000000e+02 
878.345  1.24000000e+02 
878.309  1.23000000e+02 
878.273  1.13000000e+02 
878.237  1.14000000e+02 
878.201  1.21000000e+02 
878.165  1.16000000e+02 
878.129  1.06000000e+02 
878.093  1.07000000e+02 
878.057  1.13000000e+02 
878.021  9.70000000e+01 
877.985  1.17000000e+02 
877.949  1.00000000e+02 
877.913  1.15000000e+02 
877.877  1.13000000e+02 
877.841  1.09000000e+02 
877.805  1.09000000e+02 
877.770  1.08000000e+02 
877.734  9.90000000e+01 
877.698  1.06000000e+02 
877.662  1.06000000e+02 
877.626  1.13000000e+02 
877.590  1.13000000e+02 
877.554  1.28000000e+02 
877.518  1.02000000e+02 
877.482  1.00000000e+02 
877.446  1.08000000e+02 
877.410  1.26000000e+02 
877.374  1.10000000e+02 
877.338  8.60000000e+01 
877.302  1.06000000e+02 
877.266  1.05000000e+02 
877.230  1.27000000e+02 
877.195  1.09000000e+02 
877.159  1.10000000e+02 
877.123  1.09000000e+02 
877.087  1.12000000e+02 
877.051  9.50000000e+01 
877.015  1.24000000e+02 
876.979  1.25000000e+02 
876.943  1.04000000e+02 
876.907  1.15000000e+02 
876.871  1.05000000e+02 
876.835  9.40000000e+01 
876.799  1.22000000e+02 
876.763  1.28000000e+02 
876.727  1.14000000e+02 
876.691  1.17000000e+02 
876.655  1.04000000e+02 
876.620  9.30000000e+01 
876.584  1.18000000e+02 
876.548  1.05000000e+02 
876.512  1.08000000e+02 
876.476  1.06000000e+02 
876.440  1.08000000e+02 
876.404  1.17000000e+02 
876.368  9.70000000e+01 
876.332  1.16000000e+02 
876.296  1.14000000e+02 
876.260  1.04000000e+02 
876.224  1.24000000e+02 
876.188  1.08000000e+02 
876.152  1.05000000e+02 
876.116  1.15000000e+02 
876.080  1.10000000e+02 
876.045  1.07000000e+02 
876.009  1.11000000e+02 
875.973  1.04000000e+02 
875.937  1.10000000e+02 
875.901  1.22000000e+02 
875.865  1.15000000e+02 
875.829  8.60000000e+01 
875.793  1.10000000e+02 
875.757  1.16000000e+02 
875.721  1.16000000e+02 
875.685  1.11000000e+02 
875.649  1.14000000e+02 
875.613  1.18000000e+02 
875.577  1.20000000e+02 
875.541  1.12000000e+02 
875.505  1.21000000e+02 
875.470  1.08000000e+02 
875.434  1.10000000e+02 
875.398  1.05000000e+02 
875.362  1.10000000e+02 
875.326  1.13000000e+02 
875.290  1.02000000e+02 
875.254  9.60000000e+01 
875.218  1.21000000e+02 
875.182  1.11000000e+02 
875.146  1.26000000e+02 
875.110  1.05000000e+02 
875.074  1.05000000e+02 
875.038  9.80000000e+01 
875.002  1.06000000e+02 
874.966  1.00000000e+02 
874.930  1.23000000e+02 
874.895  1.08000000e+02 
874.859  1.06000000e+02 
874.823  1.35000000e+02 
874.787  1.15000000e+02 
874.751  1.17000000e+02 
874.715  1.05000000e+02 
874.679  1.08000000e+02 
874.643  1.34000000e+02 
874.607  1.18000000e+02 
874.571  1.16000000e+02 
874.535  1.27000000e+02 
874.499  1.19000000e+02 
874.463  1.02000000e+02 
874.427  9.80000000e+01 
874.391  1.13000000e+02 
874.355  1.11000000e+02 
874.320  1.17000000e+02 
874.284  1.10000000e+02 
874.248  1.26000000e+02 
874.212  1.17000000e+02 
874.176  1.23000000e+02 
874.140  1.08000000e+02 
874.104  1.18000000e+02 
874.068  1.02000000e+02 
874.032  1.13000000e+02 
873.996  1.03000000e+02 
873.960  9.90000000e+01 
873.924  1.04000000e+02 
873.888  1.02000000e+02 
873.852  8.10000000e+01 
873.816  1.22000000e+02 
873.780  1.23000000e+02 
873.745  1.13000000e+02 
873.709  1.17000000e+02 
873.673  1.14000000e+02 
873.637  1.00000000e+02 
873.601  1.08000000e+02 
873.565  1.15000000e+02 
873.529  1.11000000e+02 
873.493  1.09000000e+02 
873.457  1.18000000e+02 
873.421  1.23000000e+02 
873.385  1.20000000e+02 
873.349  1.08000000e+02 
873.313  1.13000000e+02 
873.277  1.10000000e+02 
873.241  1.06000000e+02 
873.205  1.07000000e+02 
873.170  1.27000000e+02 
873.134  1.19000000e+02 
873.098  1.12000000e+02 
873.062  1.15000000e+02 
873.026  1.08000000e+02 
872.990  1.17000000e+02 
872.954  1.06000000e+02 
872.918  1.05000000e+02 
872.882  1.03000000e+02 
872.846  9.60000000e+01 
872.810  1.16000000e+02 
872.774  9.90000000e+01 
872.738  1.14000000e+02 
872.702  1.05000000e+02 
872.666  1.02000000e+02 
872.630  1.23000000e+02 
872.595  1.03000000e+02 
872.559  1.14000000e+02 
872.523  1.11000000e+02 
872.487  1.08000000e+02 
872.451  1.00000000e+02 
872.415  1.08000000e+02 
872.379  9.50000000e+01 
872.343  1.10000000e+02 
872.307  1.06000000e+02 
872.271  1.01000000e+02 
872.235  1.15000000e+02 
872.199  1.07000000e+02 
872.163  1.18000000e+02 
872.127  1.08000000e+02 
872.091  1.12000000e+02 
872.055  1.01000000e+02 
872.020  1.14000000e+02 
871.984  1.17000000e+02 
871.948  1.19000000e+02 
871.912  1.12000000e+02 
871.876  1.08000000e+02 
871.840  1.15000000e+02 
871.804  1.13000000e+02 
871.768  1.24000000e+02 
871.732  9.90000000e+01 
871.696  1.19000000e+02 
871.660  1.33000000e+02 
871.624  1.07000000e+02 
871.588  1.07000000e+02 
871.552  1.25000000e+02 
871.516  1.07000000e+02 
871.480  1.10000000e+02 
871.445  1.06000000e+02 
871.409  1.17000000e+02 
871.373  1.11000000e+02 
871.337  1.10000000e+02 
871.301  1.07000000e+02 
871.265  9.80000000e+01 
871.229  1.31000000e+02 
871.193  1.21000000e+02 
871.157  9.50000000e+01 
871.121  1.08000000e+02 
871.085  1.19000000e+02 
871.049  1.02000000e+02 
871.013  1.00000000e+02 
870.977  1.06000000e+02 
870.941  1.24000000e+02 
870.905  1.00000000e+02 
870.870  1.06000000e+02 
870.834  1.04000000e+02 
870.798  1.07000000e+02 
870.762  1.07000000e+02 
870.726  1.18000000e+02 
870.690  8.40000000e+01 
870.654  1.14000000e+02 
870.618  1.00000000e+02 
870.582  1.28000000e+02 
870.546  1.10000000e+02 
870.510  1.36000000e+02 
870.474  9.30000000e+01 
870.438  1.14000000e+02 
870.402  1.08000000e+02 
870.366  9.60000000e+01 
870.330  1.10000000e+02 
870.295  1.13000000e+02 
870.259  9.90000000e+01 
870.223  9.60000000e+01 
870.187  1.19000000e+02 
870.151  1.16000000e+02 
870.115  1.17000000e+02 
870.079  1.11000000e+02 
870.043  1.03000000e+02 
870.007  1.24000000e+02 
869.971  9.30000000e+01 
869.935  1.08000000e+02 
869.899  1.08000000e+02 
869.863  1.07000000e+02 
869.827  1.00000000e+02 
869.791  1.07000000e+02 
869.755  1.08000000e+02 
869.720  1.11000000e+02 
869.684  9.70000000e+01 
869.648  1.24000000e+02 
869.612  1.04000000e+02 
869.576  9.60000000e+01 
869.540  9.90000000e+01 
869.504  1.16000000e+02 
869.468  1.15000000e+02 
869.432  1.09000000e+02 
869.396  1.08000000e+02 
869.360  1.16000000e+02 
869.324  1.13000000e+02 
869.288  1.14000000e+02 
869.252  9.10000000e+01 
869.216  1.07000000e+02 
869.180  1.13000000e+02 
869.145  1.09000000e+02 
869.109  1.17000000e+02 
869.073  1.08000000e+02 
869.037  1.05000000e+02 
869.001  1.16000000e+02 
868.965  1.12000000e+02 
868.929  1.08000000e+02 
868.893  1.39000000e+02 
868.857  1.21000000e+02 
868.821  1.08000000e+02 
868.785  1.14000000e+02 
868.749  9.60000000e+01 
868.713  1.20000000e+02 
868.677  1.18000000e+02 
868.641  1.16000000e+02 
868.605  1.10000000e+02 
868.570  1.11000000e+02 
868.534  1.10000000e+02 
868.498  1.00000000e+02 
868.462  1.17000000e+02 
868.426  1.27000000e+02 
868.390  1.20000000e+02 
868.354  1.24000000e+02 
868.318  1.05000000e+02 
868.282  1.04000000e+02 
868.246  1.25000000e+02 
868.210  1.23000000e+02 
868.174  1.00000000e+02 
868.138  1.29000000e+02 
868.102  1.09000000e+02 
868.066  1.02000000e+02 
868.030  1.17000000e+02 
867.995  1.20000000e+02 
867.959  1.33000000e+02 
867.923  1.21000000e+02 
867.887  1.11000000e+02 
867.851  9.70000000e+01 
867.815  1.01000000e+02 
867.779  1.11000000e+02 
867.743  1.17000000e+02 
867.707  1.15000000e+02 
867.671  1.14000000e+02 
867.635  1.11000000e+02 
867.599  1.21000000e+02 
867.563  1.18000000e+02 
867.527  1.01000000e+02 
867.491  1.07000000e+02 
867.455  9.40000000e+01 
867.420  1.05000000e+02 
867.384  1.18000000e+02 
867.348  1.17000000e+02 
867.312  1.04000000e+02 
867.276  1.12000000e+02 
867.240  1.00000000e+02 
867.204  9.20000000e+01 
867.168  1.24000000e+02 
867.132  1.04000000e+02 
867.096  1.23000000e+02 
867.060  1.20000000e+02 
867.024  8.90000000e+01 
866.988  1.15000000e+02 
866.952  1.18000000e+02 
866.916  1.22000000e+02 
866.880  1.18000000e+02 
866.845  1.02000000e+02 
866.809  9.30000000e+01 
866.773  1.16000000e+02 
866.737  1.07000000e+02 
866.701  1.06000000e+02 
866.665  1.30000000e+02 
866.629  1.24000000e+02 
866.593  1.11000000e+02 
866.557  1.20000000e+02 
866.521  1.02000000e+02 
866.485  1.14000000e+02 
866.449  1.10000000e+02 
866.413  1.27000000e+02 
866.377  1.02000000e+02 
866.341  1.02000000e+02 
866.305  1.03000000e+02 
866.270  1.21000000e+02 
866.234  1.22000000e+02 
866.198  9.60000000e+01 
866.162  1.15000000e+02 
866.126  1.02000000e+02 
866.090  1.05000000e+02 
866.054  1.19000000e+02 
866.018  1.40000000e+02 
865.982  1.19000000e+02 
865.946  1.00000000e+02 
865.910  1.03000000e+02 
865.874  1.12000000e+02 
865.838  1.12000000e+02 
865.802  1.22000000e+02 
865.766  1.09000000e+02 
865.730  1.17000000e+02 
865.695  1.08000000e+02 
865.659  1.13000000e+02 
865.623  1.07000000e+02 
865.587  1.04000000e+02 
865.551  1.03000000e+02 
865.515  1.10000000e+02 
865.479  1.18000000e+02 
865.443  1.00000000e+02 
865.407  1.12000000e+02 
865.371  1.10000000e+02 
865.335  1.06000000e+02 
865.299  1.28000000e+02 
865.263  1.15000000e+02 
865.227  1.04000000e+02 
865.191  1.10000000e+02 
865.155  9.10000000e+01 
865.120  8.80000000e+01 
865.084  1.19000000e+02 
865.048  1.07000000e+02 
865.012  9.60000000e+01 
864.976  1.14000000e+02 
864.940  1.08000000e+02 
864.904  9.70000000e+01 
864.868  9.10000000e+01 
864.832  1.05000000e+02 
864.796  1.16000000e+02 
864.760  1.10000000e+02 
864.724  1.14000000e+02 
864.688  1.01000000e+02 
864.652  1.13000000e+02 
864.616  1.14000000e+02 
864.580  1.11000000e+02 
864.545  9.90000000e+01 
864.509  1.07000000e+02 
864.473  1.11000000e+02 
864.437  1.29000000e+02 
864.401  1.21000000e+02 
864.365  1.07000000e+02 
864.329  1.10000000e+02 
864.293  9.40000000e+01 
864.257  9.20000000e+01 
864.221  1.09000000e+02 
864.185  1.18000000e+02 
864.149  1.24000000e+02 
864.113  1.15000000e+02 
864.077  1.15000000e+02 
864.041  1.14000000e+02 
864.005  9.90000000e+01 
863.970  1.03000000e+02 
863.934  1.05000000e+02 
863.898  9.40000000e+01 
863.862  1.20000000e+02 
863.826  1.11000000e+02 
863.790  1.03000000e+02 
863.754  1.17000000e+02 
863.718  1.19000000e+02 
863.682  1.29000000e+02 
863.646  7.30000000e+01 
863.610  1.09000000e+02 
863.574  9.30000000e+01 
863.538  1.07000000e+02 
863.502  1.14000000e+02 
863.466  1.22000000e+02 
863.430  1.15000000e+02 
863.395  1.18000000e+02 
863.359  1.05000000e+02 
863.323  1.00000000e+02 
863.287  1.01000000e+02 
863.251  1.00000000e+02 
863.215  1.00000000e+02 
863.179  1.14000000e+02 
863.143  1.19000000e+02 
863.107  1.20000000e+02 
863.071  1.10000000e+02 
863.035  1.29000000e+02 
862.999  1.13000000e+02 
862.963  1.31000000e+02 
862.927  1.10000000e+02 
862.891  1.12000000e+02 
862.855  1.32000000e+02 
862.820  1.26000000e+02 
862.784  1.13000000e+02 
862.748  1.35000000e+02 
862.712  1.19000000e+02 
862.676  1.05000000e+02 
862.640  1.07000000e+02 
862.604  1.11000000e+02 
862.568  1.09000000e+02 
862.532  1.06000000e+02 
862.496  1.06000000e+02 
862.460  1.04000000e+02 
862.424  1.14000000e+02 
862.388  1.25000000e+02 
862.352  1.02000000e+02 
862.316  1.07000000e+02 
862.280  8.50000000e+01 
862.245  1.33000000e+02 
862.209  1.14000000e+02 
862.173  1.12000000e+02 
862.137  1.16000000e+02 
862.101  1.10000000e+02 
862.065  1.21000000e+02 
862.029  1.25000000e+02 
861.993  1.05000000e+02 
861.957  1.12000000e+02 
861.921  1.32000000e+02 
861.885  1.14000000e+02 
861.849  1.03000000e+02 
861.813  1.06000000e+02 
861.777  1.12000000e+02 
861.741  9.60000000e+01 
861.705  1.04000000e+02 
861.670  1.12000000e+02 
861.634  1.16000000e+02 
861.598  1.08000000e+02 
861.562  1.22000000e+02 
861.526  1.25000000e+02 
861.490  1.13000000e+02 
861.454  9.80000000e+01 
861.418  9.60000000e+01 
861.382  1.10000000e+02 
861.346  1.02000000e+02 
861.310  1.18000000e+02 
861.274  1.13000000e+02 
861.238  1.07000000e+02 
861.202  9.80000000e+01 
861.166  1.07000000e+02 
861.130  1.07000000e+02 
861.095  1.16000000e+02 
861.059  1.13000000e+02 
861.023  1.06000000e+02 
860.987  1.14000000e+02 
860.951  1.07000000e+02 
860.915  1.00000000e+02 
860.879  9.30000000e+01 
860.843  1.18000000e+02 
860.807  1.12000000e+02 
860.771  9.90000000e+01 
860.735  1.19000000e+02 
860.699  1.04000000e+02 
860.663  1.18000000e+02 
860.627  9.60000000e+01 
860.591  1.04000000e+02 
860.555  1.18000000e+02 
860.520  1.04000000e+02 
860.484  1.09000000e+02 
860.448  1.36000000e+02 
860.412  1.03000000e+02 
860.376  1.37000000e+02 
860.340  1.01000000e+02 
860.304  1.19000000e+02 
860.268  1.08000000e+02 
860.232  1.25000000e+02 
860.196  1.17000000e+02 
860.160  1.22000000e+02 
860.124  9.80000000e+01 
860.088  1.21000000e+02 
860.052  9.70000000e+01 
860.016  1.12000000e+02 
859.980  1.01000000e+02 
859.945  1.16000000e+02 
859.909  1.06000000e+02 
859.873  1.12000000e+02 
859.837  9.90000000e+01 
859.801  1.09000000e+02 
859.765  1.21000000e+02 
859.729  1.05000000e+02 
859.693  9.80000000e+01 
859.657  1.24000000e+02 
859.621  1.12000000e+02 
859.585  1.07000000e+02 
859.549  1.18000000e+02 
859.513  9.90000000e+01 
859.477  1.26000000e+02 
859.441  1.11000000e+02 
859.405  9.60000000e+01 
859.370  1.12000000e+02 
859.334  1.19000000e+02 
859.298  9.90000000e+01 
859.262  1.12000000e+02 
859.226  1.14000000e+02 
859.190  1.07000000e+02 
859.154  1.19000000e+02 
859.118  9.80000000e+01 
859.082  1.06000000e+02 
859.046  1.03000000e+02 
859.010  1.12000000e+02 
858.974  1.29000000e+02 
858.938  1.02000000e+02 
858.902  1.11000000e+02 
858.866  1.18000000e+02 
858.830  1.22000000e+02 
858.795  1.06000000e+02 
858.759  1.07000000e+02 
858.723  9.50000000e+01 
858.687  9.20000000e+01 
858.651  1.05000000e+02 
858.615  9.30000000e+01 
858.579  1.18000000e+02 
858.543  1.11000000e+02 
858.507  1.14000000e+02 
858.471  1.16000000e+02 
858.435  1.01000000e+02 
858.399  8.50000000e+01 
858.363  8.40000000e+01 
858.327  8.90000000e+01 
858.291  1.06000000e+02 
858.255  1.12000000e+02 
858.220  1.15000000e+02 
858.184  1.04000000e+02 
858.148  1.15000000e+02 
858.112  9.80000000e+01 
858.076  9.70000000e+01 
858.040  1.18000000e+02 
858.004  9.40000000e+01 
857.968  1.09000000e+02 
857.932  9.90000000e+01 
857.896  1.13000000e+02 
857.860  1.06000000e+02 
857.824  1.24000000e+02 
857.788  1.14000000e+02 
857.752  1.12000000e+02 
857.716  1.04000000e+02 
857.680  1.19000000e+02 
857.645  1.02000000e+02 
857.609  9.90000000e+01 
857.573  1.14000000e+02 
857.537  1.11000000e+02 
857.501  1.15000000e+02 
857.465  1.02000000e+02 
857.429  1.05000000e+02 
857.393  9.70000000e+01 
857.357  1.09000000e+02 
857.321  1.21000000e+02 
857.285  1.07000000e+02 
857.249  8.60000000e+01 
857.213  1.02000000e+02 
857.177  1.10000000e+02 
857.141  1.09000000e+02 
857.105  1.32000000e+02 
857.070  1.16000000e+02 
857.034  1.09000000e+02 
856.998  9.20000000e+01 
856.962  9.10000000e+01 
856.926  1.28000000e+02 
856.890  8.20000000e+01 
856.854  1.21000000e+02 
856.818  9.30000000e+01 
856.782  1.24000000e+02 
856.746  1.16000000e+02 
856.710  1.06000000e+02 
856.674  1.06000000e+02 
856.638  1.14000000e+02 
856.602  9.60000000e+01 
856.566  1.10000000e+02 
856.530  1.18000000e+02 
856.495  1.17000000e+02 
856.459  9.90000000e+01 
856.423  1.19000000e+02 
856.387  1.01000000e+02 
856.351  1.16000000e+02 
856.315  1.32000000e+02 
856.279  1.01000000e+02 
856.243  1.09000000e+02 
856.207  9.90000000e+01 
856.171  1.26000000e+02 
856.135  9.80000000e+01 
856.099  1.06000000e+02 
856.063  1.25000000e+02 
856.027  1.04000000e+02 
855.991  1.05000000e+02 
855.955  1.21000000e+02 
855.920  1.06000000e+02 
855.884  1.17000000e+02 
855.848  9.90000000e+01 
855.812  1.05000000e+02 
855.776  1.07000000e+02 
855.740  1.10000000e+02 
855.704  1.13000000e+02 
855.668  1.11000000e+02 
855.632  1.04000000e+02 
855.596  1.06000000e+02 
855.560  1.18000000e+02 
855.524  1.08000000e+02 
855.488  8.90000000e+01 
855.452  1.15000000e+02 
855.416  1.14000000e+02 
855.380  1.10000000e+02 
855.345  1.10000000e+02 
855.309  1.03000000e+02 
855.273  1.16000000e+02 
855.237  1.05000000e+02 
855.201  1.13000000e+02 
855.165  1.11000000e+02 
855.129  9.80000000e+01 
855.093  1.15000000e+02 
855.057  1.00000000e+02 
855.021  1.10000000e+02 
854.985  1.38000000e+02 
854.949  1.00000000e+02 
854.913  9.30000000e+01 
854.877  1.00000000e+02 
854.841  1.02000000e+02 
854.805  1.07000000e+02 
854.770  1.05000000e+02 
854.734  1.10000000e+02 
854.698  9.50000000e+01 
854.662  1.16000000e+02 
854.626  9.10000000e+01 
854.590  9.60000000e+01 
854.554  1.17000000e+02 
854.518  1.11000000e+02 
854.482  9.10000000e+01 
854.446  1.14000000e+02 
854.410  1.08000000e+02 
854.374  1.09000000e+02 
854.338  8.60000000e+01 
854.302  1.00000000e+02 
854.266  1.29000000e+02 
854.230  1.13000000e+02 
854.195  9.40000000e+01 
854.159  1.17000000e+02 
854.123  1.02000000e+02 
854.087  1.11000000e+02 
854.051  1.21000000e+02 
854.015  1.06000000e+02 
853.979  1.05000000e+02 
853.943  1.32000000e+02 
853.907  8.40000000e+01 
853.871  1.02000000e+02 
853.835  9.30000000e+01 
853.799  1.07000000e+02 
853.763  9.80000000e+01 
853.727  1.38000000e+02 
853.691  1.04000000e+02 
853.655  1.05000000e+02 
853.620  1.19000000e+02 
853.584  1.02000000e+02 
853.548  1.24000000e+02 
853.512  1.05000000e+02 
853.476  9.70000000e+01 
853.440  1.07000000e+02 
853.404  1.02000000e+02 
853.368  1.08000000e+02 
853.332  9.90000000e+01 
853.296  1.15000000e+02 
853.260  1.17000000e+02 
853.224  9.80000000e+01 
853.188  9.60000000e+01 
853.152  9.90000000e+01 
853.116  1.16000000e+02 
853.080  1.07000000e+02 
853.045  1.13000000e+02 
853.009  1.25000000e+02 
852.973  1.04000000e+02 
852.937  9.20000000e+01 
852.901  1.11000000e+02 
852.865  1.00000000e+02 
852.829  1.12000000e+02 
852.793  1.14000000e+02 
852.757  9.90000000e+01 
852.721  1.08000000e+02 
852.685  1.05000000e+02 
852.649  1.17000000e+02 
852.613  1.04000000e+02 
852.577  1.13000000e+02 
852.541  1.06000000e+02 
852.505  8.20000000e+01 
852.470  1.15000000e+02 
852.434  9.10000000e+01 
852.398  1.00000000e+02 
852.362  1.07000000e+02 
852.326  1.16000000e+02 
852.290  1.00000000e+02 
852.254  1.19000000e+02 
852.218  1.00000000e+02 
852.182  1.17000000e+02 
852.146  1.10000000e+02 
852.110  1.22000000e+02 
852.074  9.10000000e+01 
852.038  9.60000000e+01 
852.002  1.09000000e+02 
851.966  1.06000000e+02 
851.930  1.10000000e+02 
851.895  1.33000000e+02 
851.859  8.60000000e+01 
851.823  9.80000000e+01 
851.787  1.05000000e+02 
851.751  1.01000000e+02 
851.715  9.90000000e+01 
851.679  1.17000000e+02 
851.643  1.18000000e+02 
851.607  1.09000000e+02 
851.571  9.40000000e+01 
851.535  1.13000000e+02 
851.499  1.27000000e+02 
851.463  9.70000000e+01 
851.427  1.07000000e+02 
851.391  1.08000000e+02 
851.355  1.12000000e+02 
851.320  9.90000000e+01 
851.284  1.15000000e+02 
851.248  1.02000000e+02 
851.212  8.90000000e+01 
851.176  1.08000000e+02 
851.140  1.02000000e+02 
851.104  1.16000000e+02 
851.068  8.80000000e+01 
851.032  1.14000000e+02 
850.996  8.80000000e+01 
850.960  1.05000000e+02 
850.924  1.24000000e+02 
850.888  1.00000000e+02 
850.852  1.02000000e+02 
850.816  9.10000000e+01 
850.780  9.50000000e+01 
850.745  8.90000000e+01 
850.709  1.24000000e+02 
850.673  8.40000000e+01 
850.637  1.11000000e+02 
850.601  1.13000000e+02 
850.565  9.70000000e+01 
850.529  1.01000000e+02 
850.493  1.03000000e+02 
850.457  1.06000000e+02 
850.421  9.50000000e+01 
850.385  1.30000000e+02 
850.349  1.12000000e+02 
850.313  1.06000000e+02 
850.277  8.90000000e+01 
850.241  1.17000000e+02 
850.205  1.16000000e+02 
850.170  1.19000000e+02 
850.134  8.50000000e+01 
850.098  9.80000000e+01 
850.062  9.70000000e+01 
850.026  1.02000000e+02 
849.990  8.70000000e+01 
849.954  1.11000000e+02 
849.918  1.03000000e+02 
849.882  1.11000000e+02 
849.846  1.14000000e+02 
849.810  1.24000000e+02 
849.774  1.11000000e+02 
849.738  1.14000000e+02 
849.702  1.04000000e+02 
849.666  1.39000000e+02 
849.630  9.00000000e+01 
849.595  9.00000000e+01 
849.559  1.03000000e+02 
849.523  1.01000000e+02 
849.487  9.30000000e+01 
849.451  1.20000000e+02 
849.415  9.30000000e+01 
849.379  1.09000000e+02 
849.343  1.13000000e+02 
849.307  1.11000000e+02 
849.271  1.01000000e+02 
849.235  1.02000000e+02 
849.199  1.06000000e+02 
849.163  1.18000000e+02 
849.127  1.09000000e+02 
849.091  1.15000000e+02 
849.055  9.10000000e+01 
849.020  1.00000000e+02 
848.984  1.23000000e+02 
848.948  1.04000000e+02 
848.912  1.20000000e+02 
848.876  9.50000000e+01 
848.840  1.08000000e+02 
848.804  1.10000000e+02 
848.768  1.04000000e+02 
848.732  9.00000000e+01 
848.696  1.17000000e+02 
848.660  1.14000000e+02 
848.624  9.20000000e+01 
848.588  1.12000000e+02 
848.552  1.15000000e+02 
848.516  1.10000000e+02 
848.480  1.18000000e+02 
848.445  1.04000000e+02 
848.409  9.40000000e+01 
848.373  1.11000000e+02 
848.337  1.08000000e+02 
848.301  1.15000000e+02 
848.265  1.01000000e+02 
848.229  1.01000000e+02 
848.193  1.21000000e+02 
848.157  1.06000000e+02 
848.121  1.05000000e+02 
848.085  9.50000000e+01 
848.049  1.00000000e+02 
848.013  9.50000000e+01 
847.977  1.06000000e+02 
847.941  1.13000000e+02 
847.905  1.09000000e+02 
847.870  1.10000000e+02 
847.834  1.06000000e+02 
847.798  1.09000000e+02 
847.762  1.17000000e+02 
847.726  1.09000000e+02 
847.690  1.12000000e+02 
847.654  1.06000000e+02 
847.618  8.50000000e+01 
847.582  1.05000000e+02 
847.546  1.12000000e+02 
847.510  1.21000000e+02 
847.474  1.06000000e+02 
847.438  1.10000000e+02 
847.402  9.80000000e+01 
847.366  1.00000000e+02 
847.330  1.02000000e+02 
847.295  1.19000000e+02 
847.259  9.60000000e+01 
847.223  1.01000000e+02 
847.187  1.13000000e+02 
847.151  1.07000000e+02 
847.115  1.04000000e+02 
847.079  1.20000000e+02 
847.043  1.00000000e+02 
847.007  1.13000000e+02 
846.971  9.40000000e+01 
846.935  1.15000000e+02 
846.899  1.10000000e+02 
846.863  1.22000000e+02 
846.827  8.80000000e+01 
846.791  9.10000000e+01 
846.755  8.90000000e+01 
846.720  9.10000000e+01 
846.684  1.05000000e+02 
846.648  9.90000000e+01 
846.612  9.10000000e+01 
846.576  8.20000000e+01 
846.540  1.23000000e+02 
846.504  9.20000000e+01 
846.468  1.15000000e+02 
846.432  8.90000000e+01 
846.396  1.06000000e+02 
846.360  9.50000000e+01 
846.324  8.10000000e+01 
846.288  9.90000000e+01 
846.252  9.20000000e+01 
846.216  1.00000000e+02 
846.180  9.20000000e+01 
846.145  1.10000000e+02 
846.109  1.13000000e+02 
846.073  9.90000000e+01 
846.037  1.07000000e+02 
846.001  1.06000000e+02 
845.965  1.16000000e+02 
845.929  1.25000000e+02 
845.893  1.08000000e+02 
845.857  1.10000000e+02 
845.821  8.20000000e+01 
845.785  1.16000000e+02 
845.749  1.04000000e+02 
845.713  1.02000000e+02 
845.677  9.90000000e+01 
845.641  1.26000000e+02 
845.605  8.40000000e+01 
845.570  8.90000000e+01 
845.534  9.50000000e+01 
845.498  8.70000000e+01 
845.462  1.01000000e+02 
845.426  1.13000000e+02 
845.390  1.04000000e+02 
845.354  1.00000000e+02 
845.318  1.07000000e+02 
845.282  9.10000000e+01 
845.246  9.20000000e+01 
845.210  1.20000000e+02 
845.174  1.11000000e+02 
845.138  1.04000000e+02 
845.102  1.01000000e+02 
845.066  1.14000000e+02 
845.030  1.17000000e+02 
844.995  1.00000000e+02 
844.959  8.20000000e+01 
844.923  1.05000000e+02 
844.887  9.90000000e+01 
844.851  9.80000000e+01 
844.815  8.80000000e+01 
844.779  1.09000000e+02 
844.743  1.13000000e+02 
844.707  1.06000000e+02 
844.671  1.00000000e+02 
844.635  1.02000000e+02 
844.599  1.09000000e+02 
844.563  1.13000000e+02 
844.527  1.05000000e+02 
844.491  1.06000000e+02 
844.455  9.60000000e+01 
844.420  8.00000000e+01 
844.384  1.21000000e+02 
844.348  1.15000000e+02 
844.312  9.90000000e+01 
844.276  9.40000000e+01 
844.240  1.02000000e+02 
844.204  9.60000000e+01 
844.168  1.02000000e+02 
844.132  9.10000000e+01 
844.096  1.21000000e+02 
844.060  1.10000000e+02 
844.024  1.04000000e+02 
843.988  1.12000000e+02 
843.952  1.16000000e+02 
843.916  1.13000000e+02 
843.880  1.03000000e+02 
843.845  9.40000000e+01 
843.809  9.40000000e+01 
843.773  1.07000000e+02 
843.737  9.90000000e+01 
843.701  1.11000000e+02 
843.665  1.05000000e+02 
843.629  9.90000000e+01 
843.593  9.80000000e+01 
843.557  9.80000000e+01 
843.521  1.06000000e+02 
843.485  1.03000000e+02 
843.449  1.16000000e+02 
843.413  1.03000000e+02 
843.377  1.11000000e+02 
843.341  1.02000000e+02 
843.305  8.80000000e+01 
843.270  1.00000000e+02 
843.234  1.17000000e+02 
843.198  1.04000000e+02 
843.162  9.70000000e+01 
843.126  8.70000000e+01 
843.090  1.04000000e+02 
843.054  1.04000000e+02 
843.018  1.01000000e+02 
842.982  1.20000000e+02 
842.946  8.80000000e+01 
842.910  9.40000000e+01 
842.874  8.40000000e+01 
842.838  1.05000000e+02 
842.802  1.06000000e+02 
842.766  1.07000000e+02 
842.730  1.15000000e+02 
842.695  9.70000000e+01 
842.659  9.40000000e+01 
842.623  9.50000000e+01 
842.587  1.01000000e+02 
842.551  8.90000000e+01 
842.515  1.06000000e+02 
842.479  9.50000000e+01 
842.443  1.00000000e+02 
842.407  9.50000000e+01 
842.371  1.00000000e+02 
842.335  1.30000000e+02 
842.299  1.04000000e+02 
842.263  1.00000000e+02 
842.227  9.30000000e+01 
842.191  1.06000000e+02 
842.155  1.19000000e+02 
842.120  9.80000000e+01 
842.084  9.90000000e+01 
842.048  8.80000000e+01 
842.012  1.00000000e+02 
841.976  1.14000000e+02 
841.940  1.07000000e+02 
841.904  1.18000000e+02 
841.868  9.30000000e+01 
841.832  9.80000000e+01 
841.796  9.60000000e+01 
841.760  1.13000000e+02 
841.724  9.00000000e+01 
841.688  8.80000000e+01 
841.652  9.00000000e+01 
841.616  9.80000000e+01 
841.580  9.90000000e+01 
841.545  9.40000000e+01 
841.509  1.05000000e+02 
841.473  1.02000000e+02 
841.437  9.80000000e+01 
841.401  1.01000000e+02 
841.365  9.60000000e+01 
841.329  1.11000000e+02 
841.293  1.08000000e+02 
841.257  9.80000000e+01 
841.221  1.05000000e+02 
841.185  9.00000000e+01 
841.149  1.14000000e+02 
841.113  1.10000000e+02 
841.077  1.16000000e+02 
841.041  1.21000000e+02 
841.005  9.60000000e+01 
840.970  9.90000000e+01 
840.934  1.02000000e+02 
840.898  9.70000000e+01 
840.862  1.12000000e+02 
840.826  8.60000000e+01 
840.790  1.09000000e+02 
840.754  1.01000000e+02 
840.718  9.80000000e+01 
840.682  1.03000000e+02 
840.646  9.20000000e+01 
840.610  1.19000000e+02 
840.574  9.60000000e+01 
840.538  1.09000000e+02 
840.502  9.70000000e+01 
840.466  9.60000000e+01 
840.430  1.01000000e+02 
840.395  9.90000000e+01 
840.359  1.13000000e+02 
840.323  1.05000000e+02 
840.287  1.16000000e+02 
840.251  1.05000000e+02 
840.215  9.70000000e+01 
840.179  1.01000000e+02 
840.143  1.04000000e+02 
840.107  9.30000000e+01 
840.071  8.40000000e+01 
840.035  8.50000000e+01 
839.999  1.16000000e+02 
839.963  1.08000000e+02 
839.927  1.03000000e+02 
839.891  8.70000000e+01 
839.855  1.09000000e+02 
839.820  9.90000000e+01 
839.784  9.50000000e+01 
839.748  1.00000000e+02 
839.712  8.70000000e+01 
839.676  1.10000000e+02 
839.640  1.07000000e+02 
839.604  1.02000000e+02 
839.568  1.06000000e+02 
839.532  9.10000000e+01 
839.496  9.30000000e+01 
839.460  1.02000000e+02 
839.424  1.09000000e+02 
839.388  1.09000000e+02 
839.352  1.03000000e+02 
839.316  9.60000000e+01 
839.280  1.00000000e+02 
839.245  1.06000000e+02 
839.209  1.07000000e+02 
839.173  1.03000000e+02 
839.137  1.10000000e+02 
839.101  1.03000000e+02 
839.065  1.03000000e+02 
839.029  9.40000000e+01 
838.993  1.14000000e+02 
838.957  1.00000000e+02 
838.921  1.00000000e+02 
838.885  1.02000000e+02 
838.849  1.13000000e+02 
838.813  1.02000000e+02 
838.777  1.24000000e+02 
838.741  7.70000000e+01 
838.705  9.10000000e+01 
838.670  1.01000000e+02 
838.634  1.04000000e+02 
838.598  1.11000000e+02 
838.562  1.04000000e+02 
838.526  1.02000000e+02 
838.490  1.02000000e+02 
838.454  1.13000000e+02 
838.418  9.70000000e+01 
838.382  1.16000000e+02 
838.346  1.01000000e+02 
838.310  9.50000000e+01 
838.274  1.16000000e+02 
838.238  8.90000000e+01 
838.202  9.90000000e+01 
838.166  1.09000000e+02 
838.130  1.08000000e+02 
838.095  1.12000000e+02 
838.059  9.40000000e+01 
838.023  9.50000000e+01 
837.987  9.70000000e+01 
837.951  1.09000000e+02 
837.915  1.12000000e+02 
837.879  1.00000000e+02 
837.843  1.15000000e+02 
837.807  9.00000000e+01 
837.771  1.04000000e+02 
837.735  1.08000000e+02 
837.699  1.03000000e+02 
837.663  9.00000000e+01 
837.627  1.00000000e+02 
837.591  1.13000000e+02 
837.555  1.09000000e+02 
837.520  1.05000000e+02 
837.484  1.19000000e+02 
837.448  9.10000000e+01 
837.412  9.60000000e+01 
837.376  9.10000000e+01 
837.340  1.05000000e+02 
837.304  1.27000000e+02 
837.268  1.08000000e+02 
837.232  9.70000000e+01 
837.196  1.06000000e+02 
837.160  8.60000000e+01 
837.124  1.10000000e+02 
837.088  9.70000000e+01 
837.052  9.30000000e+01 
837.016  1.00000000e+02 
836.980  1.10000000e+02 
836.945  9.60000000e+01 
836.909  1.00000000e+02 
836.873  1.04000000e+02 
836.837  9.40000000e+01 
836.801  9.90000000e+01 
836.765  1.20000000e+02 
836.729  1.24000000e+02 
836.693  1.02000000e+02 
836.657  1.07000000e+02 
836.621  1.03000000e+02 
836.585  9.80000000e+01 
836.549  1.11000000e+02 
836.513  9.10000000e+01 
836.477  9.00000000e+01 
836.441  9.60000000e+01 
836.405  8.70000000e+01 
836.370  9.60000000e+01 
836.334  1.04000000e+02 
836.298  9.30000000e+01 
836.262  1.12000000e+02 
836.226  9.90000000e+01 
836.190  9.80000000e+01 
836.154  1.07000000e+02 
836.118  1.08000000e+02 
836.082  9.50000000e+01 
836.046  1.18000000e+02 
836.010  9.80000000e+01 
835.974  9.80000000e+01 
835.938  1.05000000e+02 
835.902  1.13000000e+02 
835.866  1.05000000e+02 
835.830  9.90000000e+01 
835.795  9.00000000e+01 
835.759  9.50000000e+01 
835.723  1.10000000e+02 
835.687  1.08000000e+02 
835.651  1.17000000e+02 
835.615  9.90000000e+01 
835.579  9.40000000e+01 
835.543  1.23000000e+02 
835.507  9.00000000e+01 
835.471  9.10000000e+01 
835.435  9.40000000e+01 
835.399  1.01000000e+02 
835.363  1.08000000e+02 
835.327  9.70000000e+01 
835.291  1.22000000e+02 
835.255  1.15000000e+02 
835.220  1.03000000e+02 
835.184  1.14000000e+02 
835.148  9.90000000e+01 
835.112  1.06000000e+02 
835.076  9.00000000e+01 
835.040  9.30000000e+01 
835.004  1.14000000e+02 
834.968  1.01000000e+02 
834.932  1.04000000e+02 
834.896  1.14000000e+02 
834.860  8.40000000e+01 
834.824  9.90000000e+01 
834.788  6.80000000e+01 
834.752  1.01000000e+02 
834.716  1.16000000e+02 
834.680  8.20000000e+01 
834.645  1.02000000e+02 
834.609  1.20000000e+02 
834.573  9.90000000e+01 
834.537  1.10000000e+02 
834.501  1.08000000e+02 
834.465  1.13000000e+02 
834.429  9.00000000e+01 
834.393  1.08000000e+02 
834.357  9.90000000e+01 
834.321  1.12000000e+02 
834.285  9.40000000e+01 
834.249  9.60000000e+01 
834.213  9.00000000e+01 
834.177  1.03000000e+02 
834.141  9.10000000e+01 
834.105  1.01000000e+02 
834.070  9.90000000e+01 
834.034  8.90000000e+01 
833.998  9.60000000e+01 
833.962  8.30000000e+01 
833.926  1.08000000e+02 
833.890  1.02000000e+02 
833.854  9.80000000e+01 
833.818  9.30000000e+01 
833.782  9.00000000e+01 
833.746  1.08000000e+02 
833.710  1.11000000e+02 
833.674  8.00000000e+01 
833.638  1.03000000e+02 
833.602  9.00000000e+01 
833.566  8.80000000e+01 
833.530  8.40000000e+01 
833.495  8.00000000e+01 
833.459  9.40000000e+01 
833.423  1.15000000e+02 
833.387  9.70000000e+01 
833.351  8.50000000e+01 
833.315  1.10000000e+02 
833.279  1.18000000e+02 
833.243  8.40000000e+01 
833.207  1.01000000e+02 
833.171  1.17000000e+02 
833.135  1.03000000e+02 
833.099  1.00000000e+02 
833.063  1.04000000e+02 
833.027  9.00000000e+01 
832.991  1.21000000e+02 
832.955  8.30000000e+01 
832.920  1.00000000e+02 
832.884  1.07000000e+02 
832.848  1.21000000e+02 
832.812  1.02000000e+02 
832.776  8.10000000e+01 
832.740  1.08000000e+02 
832.704  9.90000000e+01 
832.668  1.08000000e+02 
832.632  1.22000000e+02 
832.596  1.17000000e+02 
832.560  9.70000000e+01 
832.524  1.06000000e+02 
832.488  8.70000000e+01 
832.452  1.05000000e+02 
832.416  1.03000000e+02 
832.380  1.06000000e+02 
832.345  1.04000000e+02 
832.309  8.50000000e+01 
832.273  1.04000000e+02 
832.237  9.70000000e+01 
832.201  9.60000000e+01 
832.165  9.50000000e+01 
832.129  9.00000000e+01 
832.093  1.00000000e+02 
832.057  9.70000000e+01 
832.021  1.11000000e+02 
831.985  1.00000000e+02 
831.949  9.40000000e+01 
831.913  1.13000000e+02 
831.877  1.03000000e+02 
831.841  1.24000000e+02 
831.805  1.02000000e+02 
831.770  9.80000000e+01 
831.734  1.15000000e+02 
831.698  1.06000000e+02 
831.662  9.50000000e+01 
831.626  1.05000000e+02 
831.590  9.90000000e+01 
831.554  1.17000000e+02 
831.518  9.20000000e+01 
831.482  1.00000000e+02 
831.446  9.40000000e+01 
831.410  1.02000000e+02 
831.374  1.14000000e+02 
831.338  9.00000000e+01 
831.302  1.13000000e+02 
831.266  1.09000000e+02 
831.230  1.06000000e+02 
831.195  1.09000000e+02 
831.159  8.70000000e+01 
831.123  9.20000000e+01 
831.087  1.06000000e+02 
831.051  9.40000000e+01 
831.015  9.40000000e+01 
830.979  8.20000000e+01 
830.943  9.90000000e+01 
830.907  9.70000000e+01 
830.871  1.08000000e+02 
830.835  1.20000000e+02 
830.799  9.90000000e+01 
830.763  8.80000000e+01 
830.727  9.30000000e+01 
830.691  1.05000000e+02 
830.655  8.10000000e+01 
830.620  1.24000000e+02 
830.584  1.09000000e+02 
830.548  8.60000000e+01 
830.512  1.04000000e+02 
830.476  1.01000000e+02 
830.440  8.90000000e+01 
830.404  1.14000000e+02 
830.368  9.90000000e+01 
830.332  1.15000000e+02 
830.296  1.14000000e+02 
830.260  7.80000000e+01 
830.224  9.40000000e+01 
830.188  1.07000000e+02 
830.152  9.50000000e+01 
830.116  1.17000000e+02 
830.080  9.40000000e+01 
830.045  9.40000000e+01 
830.009  1.14000000e+02 
829.973  9.70000000e+01 
829.937  8.90000000e+01 
829.901  1.15000000e+02 
829.865  1.06000000e+02 
829.829  1.01000000e+02 
829.793  1.24000000e+02 
829.757  1.04000000e+02 
829.721  1.01000000e+02 
829.685  1.06000000e+02 
829.649  1.17000000e+02 
829.613  1.10000000e+02 
829.577  9.70000000e+01 
829.541  1.12000000e+02 
829.505  9.80000000e+01 
829.470  1.16000000e+02 
829.434  9.60000000e+01 
829.398  9.70000000e+01 
829.362  1.05000000e+02 
829.326  1.13000000e+02 
829.290  9.40000000e+01 
829.254  8.80000000e+01 
829.218  1.09000000e+02 
829.182  1.10000000e+02 
829.146  9.80000000e+01 
829.110  9.40000000e+01 
829.074  1.11000000e+02 
829.038  1.09000000e+02 
829.002  8.70000000e+01 
828.966  9.10000000e+01 
828.930  1.02000000e+02 
828.895  1.08000000e+02 
828.859  1.00000000e+02 
828.823  9.40000000e+01 
828.787  1.08000000e+02 
828.751  8.70000000e+01 
828.715  1.06000000e+02 
828.679  1.08000000e+02 
828.643  1.04000000e+02 
828.607  1.07000000e+02 
828.571  1.03000000e+02 
828.535  1.04000000e+02 
828.499  9.40000000e+01 
828.463  1.03000000e+02 
828.427  9.40000000e+01 
828.391  1.12000000e+02 
828.355  1.02000000e+02 
828.320  9.90000000e+01 
828.284  9.80000000e+01 
828.248  1.00000000e+02 
828.212  9.90000000e+01 
828.176  1.12000000e+02 
828.140  9.70000000e+01 
828.104  9.90000000e+01 
828.068  1.26000000e+02 
828.032  8.90000000e+01 
827.996  1.04000000e+02 
827.960  1.11000000e+02 
827.924  1.08000000e+02 
827.888  9.10000000e+01 
827.852  1.08000000e+02 
827.816  8.80000000e+01 
827.780  1.09000000e+02 
827.745  1.10000000e+02 
827.709  9.70000000e+01 
827.673  1.05000000e+02 
827.637  1.08000000e+02 
827.601  1.11000000e+02 
827.565  1.02000000e+02 
827.529  1.03000000e+02 
827.493  1.17000000e+02 
827.457  1.03000000e+02 
827.421  9.40000000e+01 
827.385  9.20000000e+01 
827.349  1.24000000e+02 
827.313  1.10000000e+02 
827.277  8.70000000e+01 
827.241  1.05000000e+02 
827.205  9.50000000e+01 
827.170  1.08000000e+02 
827.134  9.70000000e+01 
827.098  9.50000000e+01 
827.062  1.01000000e+02 
827.026  9.20000000e+01 
826.990  1.07000000e+02 
826.954  1.07000000e+02 
826.918  9.60000000e+01 
826.882  1.10000000e+02 
826.846  1.03000000e+02 
826.810  1.00000000e+02 
826.774  1.02000000e+02 
826.738  9.80000000e+01 
826.702  1.08000000e+02 
826.666  1.03000000e+02 
826.630  9.60000000e+01 
826.595  1.09000000e+02 
826.559  9.90000000e+01 
826.523  9.60000000e+01 
826.487  9.70000000e+01 
826.451  1.09000000e+02 
826.415  1.03000000e+02 
826.379  9.50000000e+01 
826.343  1.02000000e+02 
826.307  1.15000000e+02 
826.271  8.90000000e+01 
826.235  1.12000000e+02 
826.199  1.04000000e+02 
826.163  1.04000000e+02 
826.127  9.90000000e+01 
826.091  9.60000000e+01 
826.055  8.70000000e+01 
826.020  9.50000000e+01 
825.984  1.04000000e+02 
825.948  9.90000000e+01 
825.912  9.80000000e+01 
825.876  8.70000000e+01 
825.840  8.00000000e+01 
825.804  1.08000000e+02 
825.768  9.60000000e+01 
825.732  1.07000000e+02 
825.696  1.11000000e+02 
825.660  9.20000000e+01 
825.624  1.09000000e+02 
825.588  9.40000000e+01 
825.552  1.04000000e+02 
825.516  9.90000000e+01 
825.480  1.10000000e+02 
825.445  9.80000000e+01 
825.409  1.21000000e+02 
825.373  1.06000000e+02 
825.337  9.80000000e+01 
825.301  1.22000000e+02 
825.265  1.08000000e+02 
825.229  9.20000000e+01 
825.193  9.40000000e+01 
825.157  1.12000000e+02 
825.121  1.00000000e+02 
825.085  1.00000000e+02 
825.049  1.23000000e+02 
825.013  1.14000000e+02 
824.977  9.00000000e+01 
824.941  1.12000000e+02 
824.905  8.50000000e+01 
824.870  1.08000000e+02 
824.834  9.30000000e+01 
824.798  9.60000000e+01 
824.762  1.15000000e+02 
824.726  8.20000000e+01 
824.690  9.70000000e+01 
824.654  9.60000000e+01 
824.618  9.70000000e+01 
824.582  1.16000000e+02 
824.546  9.20000000e+01 
824.510  1.22000000e+02 
824.474  9.20000000e+01 
824.438  8.10000000e+01 
824.402  1.05000000e+02 
824.366  1.03000000e+02 
824.330  9.90000000e+01 
824.295  9.60000000e+01 
824.259  8.30000000e+01 
824.223  1.21000000e+02 
824.187  1.15000000e+02 
824.151  1.07000000e+02 
824.115  1.04000000e+02 
824.079  9.80000000e+01 
824.043  1.11000000e+02 
824.007  1.01000000e+02 
823.971  9.00000000e+01 
823.935  1.16000000e+02 
823.899  1.04000000e+02 
823.863  7.50000000e+01 
823.827  9.70000000e+01 
823.791  1.07000000e+02 
823.755  8.40000000e+01 
823.720  1.05000000e+02 
823.684  1.02000000e+02 
823.648  8.30000000e+01 
823.612  8.20000000e+01 
823.576  1.08000000e+02 
823.540  9.40000000e+01 
823.504  1.09000000e+02 
823.468  9.90000000e+01 
823.432  1.13000000e+02 
823.396  1.00000000e+02 
823.360  1.10000000e+02 
823.324  9.10000000e+01 
823.288  9.70000000e+01 
823.252  1.21000000e+02 
823.216  1.03000000e+02 
823.180  1.24000000e+02 
823.145  1.09000000e+02 
823.109  9.10000000e+01 
823.073  1.10000000e+02 
823.037  1.10000000e+02 
823.001  1.17000000e+02 
822.965  1.04000000e+02 
822.929  9.30000000e+01 
822.893  1.22000000e+02 
822.857  1.04000000e+02 
822.821  9.30000000e+01 
822.785  1.25000000e+02 
822.749  8.60000000e+01 
822.713  9.10000000e+01 
822.677  1.04000000e+02 
822.641  1.14000000e+02 
822.605  8.90000000e+01 
822.570  9.00000000e+01 
822.534  1.05000000e+02 
822.498  1.09000000e+02 
822.462  9.40000000e+01 
822.426  1.02000000e+02 
822.390  9.60000000e+01 
822.354  9.20000000e+01 
822.318  8.80000000e+01 
822.282  9.90000000e+01 
822.246  9.40000000e+01 
822.210  7.80000000e+01 
822.174  1.04000000e+02 
822.138  1.06000000e+02 
822.102  1.13000000e+02 
822.066  1.06000000e+02 
822.030  1.06000000e+02 
821.995  1.09000000e+02 
821.959  1.04000000e+02 
821.923  9.10000000e+01 
821.887  1.11000000e+02 
821.851  1.05000000e+02 
821.815  1.07000000e+02 
821.779  9.80000000e+01 
821.743  1.05000000e+02 
821.707  1.07000000e+02 
821.671  8.90000000e+01 
821.635  9.10000000e+01 
821.599  1.05000000e+02 
821.563  9.80000000e+01 
821.527  9.90000000e+01 
821.491  9.80000000e+01 
821.455  1.01000000e+02 
821.420  1.09000000e+02 
821.384  1.02000000e+02 
821.348  8.40000000e+01 
821.312  9.70000000e+01 
821.276  8.70000000e+01 
821.240  1.06000000e+02 
821.204  1.04000000e+02 
821.168  1.00000000e+02 
821.132  1.16000000e+02 
821.096  1.04000000e+02 
821.060  1.01000000e+02 
821.024  1.10000000e+02 
820.988  1.09000000e+02 
820.952  1.14000000e+02 
820.916  9.80000000e+01 
820.880  1.03000000e+02 
820.845  8.70000000e+01 
820.809  1.19000000e+02 
820.773  1.02000000e+02 
820.737  9.50000000e+01 
820.701  9.00000000e+01 
820.665  1.05000000e+02 
820.629  9.20000000e+01 
820.593  9.40000000e+01 
820.557  9.20000000e+01 
820.521  9.90000000e+01 
820.485  1.24000000e+02 
820.449  9.40000000e+01 
820.413  9.00000000e+01 
820.377  1.12000000e+02 
820.341  1.03000000e+02 
820.305  8.60000000e+01 
820.270  1.06000000e+02 
820.234  9.80000000e+01 
820.198  1.01000000e+02 
820.162  1.26000000e+02 
820.126  8.30000000e+01 
820.090  1.02000000e+02 
820.054  9.10000000e+01 
820.018  8.90000000e+01 
819.982  8.30000000e+01 
819.946  9.80000000e+01 
819.910  1.01000000e+02 
819.874  8.70000000e+01 
819.838  1.02000000e+02 
819.802  9.90000000e+01 
819.766  8.80000000e+01 
819.730  9.20000000e+01 
819.695  8.50000000e+01 
819.659  8.00000000e+01 
819.623  1.04000000e+02 
819.587  9.50000000e+01 
819.551  9.80000000e+01 
819.515  9.80000000e+01 
819.479  9.20000000e+01 
819.443  1.03000000e+02 
819.407  9.00000000e+01 
819.371  1.05000000e+02 
819.335  9.90000000e+01 
819.299  8.90000000e+01 
819.263  1.12000000e+02 
819.227  1.07000000e+02 
819.191  1.07000000e+02 
819.155  1.05000000e+02 
819.120  9.00000000e+01 
819.084  1.19000000e+02 
819.048  9.50000000e+01 
819.012  9.20000000e+01 
818.976  8.30000000e+01 
818.940  1.05000000e+02 
818.904  1.08000000e+02 
818.868  9.50000000e+01 
818.832  1.08000000e+02 
818.796  1.10000000e+02 
818.760  1.20000000e+02 
818.724  1.07000000e+02 
818.688  9.70000000e+01 
818.652  1.04000000e+02 
818.616  1.09000000e+02 
818.580  9.70000000e+01 
818.545  8.80000000e+01 
818.509  1.03000000e+02 
818.473  1.00000000e+02 
818.437  7.50000000e+01 
818.401  9.80000000e+01 
818.365  1.01000000e+02 
818.329  9.70000000e+01 
818.293  9.10000000e+01 
818.257  8.90000000e+01 
818.221  1.09000000e+02 
818.185  8.80000000e+01 
818.149  1.15000000e+02 
818.113  1.10000000e+02 
818.077  9.20000000e+01 
818.041  9.50000000e+01 
818.005  8.70000000e+01 
817.970  1.08000000e+02 
817.934  1.00000000e+02 
817.898  8.30000000e+01 
817.862  9.20000000e+01 
817.826  9.90000000e+01 
817.790  9.50000000e+01 
817.754  9.10000000e+01 
817.718  8.50000000e+01 
817.682  9.40000000e+01 
817.646  1.10000000e+02 
817.610  1.04000000e+02 
817.574  1.06000000e+02 
817.538  9.50000000e+01 
817.502  8.50000000e+01 
817.466  8.90000000e+01 
817.430  1.05000000e+02 
817.395  1.00000000e+02 
817.359  1.01000000e+02 
817.323  9.40000000e+01 
817.287  1.03000000e+02 
817.251  1.01000000e+02 
817.215  1.20000000e+02 
817.179  1.00000000e+02 
817.143  8.70000000e+01 
817.107  1.08000000e+02 
817.071  9.20000000e+01 
817.035  1.14000000e+02 
816.999  8.00000000e+01 
816.963  1.07000000e+02 
816.927  9.30000000e+01 
816.891  1.00000000e+02 
816.855  8.80000000e+01 
816.820  1.07000000e+02 
816.784  1.28000000e+02 
816.748  9.30000000e+01 
816.712  9.90000000e+01 
816.676  8.50000000e+01 
816.640  1.00000000e+02 
816.604  1.01000000e+02 
816.568  1.08000000e+02 
816.532  1.03000000e+02 
816.496  8.00000000e+01 
816.460  9.20000000e+01 
816.424  9.00000000e+01 
816.388  9.40000000e+01 
816.352  1.12000000e+02 
816.316  1.01000000e+02 
816.280  1.02000000e+02 
816.245  9.70000000e+01 
816.209  1.11000000e+02 
816.173  1.06000000e+02 
816.137  1.07000000e+02 
816.101  8.80000000e+01 
816.065  1.08000000e+02 
816.029  9.90000000e+01 
815.993  1.00000000e+02 
815.957  1.10000000e+02 
815.921  1.02000000e+02 
815.885  1.05000000e+02 
815.849  1.09000000e+02 
815.813  1.03000000e+02 
815.777  9.10000000e+01 
815.741  9.70000000e+01 
815.705  9.80000000e+01 
815.670  7.80000000e+01 
815.634  1.13000000e+02 
815.598  1.19000000e+02 
815.562  1.04000000e+02 
815.526  1.02000000e+02 
815.490  1.13000000e+02 
815.454  9.70000000e+01 
815.418  1.00000000e+02 
815.382  9.30000000e+01 
815.346  1.02000000e+02 
815.310  1.29000000e+02 
815.274  9.70000000e+01 
815.238  1.08000000e+02 
815.202  9.10000000e+01 
815.166  1.01000000e+02 
815.130  1.15000000e+02 
815.095  8.20000000e+01 
815.059  1.06000000e+02 
815.023  7.80000000e+01 
814.987  1.01000000e+02 
814.951  1.18000000e+02 
814.915  9.10000000e+01 
814.879  8.90000000e+01 
814.843  1.17000000e+02 
814.807  8.90000000e+01 
814.771  1.04000000e+02 
814.735  1.03000000e+02 
814.699  1.06000000e+02 
814.663  9.50000000e+01 
814.627  1.01000000e+02 
814.591  9.30000000e+01 
814.555  9.40000000e+01 
814.520  8.90000000e+01 
814.484  1.02000000e+02 
814.448  1.00000000e+02 
814.412  1.14000000e+02 
814.376  9.90000000e+01 
814.340  9.60000000e+01 
814.304  1.04000000e+02 
814.268  1.07000000e+02 
814.232  1.09000000e+02 
814.196  9.10000000e+01 
814.160  1.09000000e+02 
814.124  1.18000000e+02 
814.088  1.18000000e+02 
814.052  1.08000000e+02 
814.016  9.60000000e+01 
813.980  9.80000000e+01 
813.945  1.05000000e+02 
813.909  1.05000000e+02 
813.873  9.80000000e+01 
813.837  9.70000000e+01 
813.801  1.03000000e+02 
813.765  8.70000000e+01 
813.729  8.70000000e+01 
813.693  8.40000000e+01 
813.657  9.50000000e+01 
813.621  9.80000000e+01 
813.585  1.03000000e+02 
813.549  9.40000000e+01 
813.513  9.30000000e+01 
813.477  9.70000000e+01 
813.441  8.90000000e+01 
813.405  7.50000000e+01 
813.370  8.90000000e+01 
813.334  9.00000000e+01 
813.298  1.09000000e+02 
813.262  1.09000000e+02 
813.226  1.08000000e+02 
813.190  1.14000000e+02 
813.154  1.11000000e+02 
813.118  9.80000000e+01 
813.082  9.50000000e+01 
813.046  1.09000000e+02 
813.010  1.03000000e+02 
812.974  1.03000000e+02 
812.938  8.90000000e+01 
812.902  9.40000000e+01 
812.866  1.08000000e+02 
812.830  1.16000000e+02 
812.795  1.09000000e+02 
812.759  1.06000000e+02 
812.723  1.07000000e+02 
812.687  1.02000000e+02 
812.651  1.03000000e+02 
812.615  1.08000000e+02 
812.579  9.80000000e+01 
812.543  9.50000000e+01 
812.507  9.30000000e+01 
812.471  9.60000000e+01 
812.435  1.06000000e+02 
812.399  9.90000000e+01 
812.363  9.70000000e+01 
812.327  1.27000000e+02 
812.291  1.01000000e+02 
812.255  9.60000000e+01 
812.220  1.09000000e+02 
812.184  9.80000000e+01 
812.148  1.15000000e+02 
812.112  9.10000000e+01 
812.076  9.40000000e+01 
812.040  1.07000000e+02 
812.004  1.05000000e+02 
811.968  9.10000000e+01 
811.932  8.70000000e+01 
811.896  9.50000000e+01 
811.860  1.04000000e+02 
811.824  9.80000000e+01 
811.788  9.30000000e+01 
811.752  9.30000000e+01 
811.716  9.60000000e+01 
811.680  1.23000000e+02 
811.645  9.20000000e+01 
811.609  1.18000000e+02 
811.573  1.06000000e+02 
811.537  1.12000000e+02 
811.501  9.70000000e+01 
811.465  8.10000000e+01 
811.429  1.12000000e+02 
811.393  9.40000000e+01 
811.357  9.80000000e+01 
811.321  9.60000000e+01 
811.285  9.00000000e+01 
811.249  1.00000000e+02 
811.213  9.90000000e+01 
811.177  9.20000000e+01 
811.141  9.50000000e+01 
811.105  9.00000000e+01 
811.070  1.10000000e+02 
811.034  1.04000000e+02 
810.998  9.30000000e+01 
810.962  8.70000000e+01 
810.926  1.10000000e+02 
810.890  8.30000000e+01 
810.854  1.16000000e+02 
810.818  9.10000000e+01 
810.782  1.10000000e+02 
810.746  9.00000000e+01 
810.710  8.90000000e+01 
810.674  1.04000000e+02 
810.638  9.00000000e+01 
810.602  1.06000000e+02 
810.566  1.12000000e+02 
810.530  9.30000000e+01 
810.495  1.10000000e+02 
810.459  1.02000000e+02 
810.423  8.60000000e+01 
810.387  7.30000000e+01 
810.351  1.12000000e+02 
810.315  1.03000000e+02 
810.279  9.30000000e+01 
810.243  9.60000000e+01 
810.207  9.90000000e+01 
810.171  9.70000000e+01 
810.135  9.50000000e+01 
810.099  1.24000000e+02 
810.063  9.40000000e+01 
810.027  9.60000000e+01 
809.991  1.07000000e+02 
809.955  9.60000000e+01 
809.920  1.22000000e+02 
809.884  9.90000000e+01 
809.848  1.05000000e+02 
809.812  1.01000000e+02 
809.776  9.50000000e+01 
809.740  1.02000000e+02 
809.704  9.30000000e+01 
809.668  9.70000000e+01 
809.632  9.20000000e+01 
809.596  1.05000000e+02 
809.560  9.80000000e+01 
809.524  9.00000000e+01 
809.488  9.10000000e+01 
809.452  7.90000000e+01 
809.416  1.04000000e+02 
809.380  1.06000000e+02 
809.345  1.21000000e+02 
809.309  1.11000000e+02 
809.273  1.02000000e+02 
809.237  1.25000000e+02 
809.201  8.70000000e+01 
809.165  9.30000000e+01 
809.129  1.01000000e+02 
809.093  1.24000000e+02 
809.057  8.20000000e+01 
809.021  1.04000000e+02 
808.985  1.08000000e+02 
808.949  9.60000000e+01 
808.913  9.00000000e+01 
808.877  8.90000000e+01 
808.841  9.60000000e+01 
808.805  1.05000000e+02 
808.770  9.90000000e+01 
808.734  1.09000000e+02 
808.698  9.10000000e+01 
808.662  9.60000000e+01 
808.626  1.10000000e+02 
808.590  9.90000000e+01 
808.554  1.11000000e+02 
808.518  1.08000000e+02 
808.482  9.90000000e+01 
808.446  8.50000000e+01 
808.410  1.01000000e+02 
808.374  1.07000000e+02 
808.338  1.01000000e+02 
808.302  1.00000000e+02 
808.266  8.40000000e+01 
808.230  8.80000000e+01 
808.195  1.07000000e+02 
808.159  1.05000000e+02 
808.123  9.90000000e+01 
808.087  1.00000000e+02 
808.051  9.30000000e+01 
808.015  9.70000000e+01 
807.979  9.70000000e+01 
807.943  1.07000000e+02 
807.907  1.06000000e+02 
807.871  8.90000000e+01 
807.835  1.04000000e+02 
807.799  9.90000000e+01 
807.763  1.03000000e+02 
807.727  8.50000000e+01 
807.691  9.30000000e+01 
807.655  9.90000000e+01 
807.620  9.70000000e+01 
807.584  9.10000000e+01 
807.548  1.07000000e+02 
807.512  9.00000000e+01 
807.476  1.13000000e+02 
807.440  1.15000000e+02 
807.404  1.19000000e+02 
807.368  9.70000000e+01 
807.332  8.60000000e+01 
807.296  9.30000000e+01 
807.260  1.06000000e+02 
807.224  1.01000000e+02 
807.188  1.08000000e+02 
807.152  9.30000000e+01 
807.116  9.30000000e+01 
807.080  9.40000000e+01 
807.045  9.80000000e+01 
807.009  8.90000000e+01 
806.973  1.01000000e+02 
806.937  1.11000000e+02 
806.901  1.02000000e+02 
806.865  1.12000000e+02 
806.829  1.06000000e+02 
806.793  9.20000000e+01 
806.757  1.07000000e+02 
806.721  8.30000000e+01 
806.685  8.70000000e+01 
806.649  1.01000000e+02 
806.613  9.30000000e+01 
806.577  1.05000000e+02 
806.541  8.90000000e+01 
806.505  1.03000000e+02 
806.470  8.30000000e+01 
806.434  8.80000000e+01 
806.398  1.01000000e+02 
806.362  1.01000000e+02 
806.326  9.00000000e+01 
806.290  1.04000000e+02 
806.254  1.11000000e+02 
806.218  8.30000000e+01 
806.182  1.07000000e+02 
806.146  8.20000000e+01 
806.110  9.70000000e+01 
806.074  9.80000000e+01 
806.038  9.50000000e+01 
806.002  1.06000000e+02 
805.966  9.70000000e+01 
805.930  9.80000000e+01 
805.895  1.04000000e+02 
805.859  8.50000000e+01 
805.823  1.03000000e+02 
805.787  9.50000000e+01 
805.751  8.20000000e+01 
805.715  1.04000000e+02 
805.679  1.18000000e+02 
805.643  1.03000000e+02 
805.607  1.01000000e+02 
805.571  9.70000000e+01 
805.535  9.30000000e+01 
805.499  9.00000000e+01 
805.463  8.80000000e+01 
805.427  1.04000000e+02 
805.391  8.00000000e+01 
805.355  9.40000000e+01 
805.320  1.11000000e+02 
805.284  8.30000000e+01 
805.248  1.00000000e+02 
805.212  8.80000000e+01 
805.176  1.02000000e+02 
805.140  9.00000000e+01 
805.104  8.90000000e+01 
805.068  1.23000000e+02 
805.032  9.80000000e+01 
804.996  8.50000000e+01 
804.960  8.20000000e+01 
804.924  8.40000000e+01 
804.888  9.30000000e+01 
804.852  1.13000000e+02 
804.816  1.11000000e+02 
804.780  1.15000000e+02 
804.745  1.00000000e+02 
804.709  9.80000000e+01 
804.673  9.70000000e+01 
804.637  9.30000000e+01 
804.601  1.00000000e+02 
804.565  1.02000000e+02 
804.529  9.50000000e+01 
804.493  1.06000000e+02 
804.457  9.60000000e+01 
804.421  9.20000000e+01 
804.385  9.80000000e+01 
804.349  1.08000000e+02 
804.313  1.05000000e+02 
804.277  1.14000000e+02 
804.241  1.11000000e+02 
804.205  1.18000000e+02 
804.170  8.40000000e+01 
804.134  1.10000000e+02 
804.098  1.05000000e+02 
804.062  9.00000000e+01 
804.026  8.60000000e+01 
803.990  9.50000000e+01 
803.954  9.70000000e+01 
803.918  9.80000000e+01 
803.882  9.30000000e+01 
803.846  1.13000000e+02 
803.810  8.40000000e+01 
803.774  9.20000000e+01 
803.738  9.10000000e+01 
803.702  9.80000000e+01 
803.666  1.07000000e+02 
803.630  9.00000000e+01 
803.595  1.03000000e+02 
803.559  9.90000000e+01 
803.523  8.80000000e+01 
803.487  1.06000000e+02 
803.451  1.08000000e+02 
803.415  9.40000000e+01 
803.379  8.10000000e+01 
803.343  1.13000000e+02 
803.307  8.90000000e+01 
803.271  1.00000000e+02 
803.235  9.80000000e+01 
803.199  1.01000000e+02 
803.163  8.90000000e+01 
803.127  1.06000000e+02 
803.091  9.30000000e+01 
803.055  9.70000000e+01 
803.020  1.06000000e+02 
802.984  1.04000000e+02 
802.948  1.09000000e+02 
802.912  8.90000000e+01 
802.876  9.20000000e+01 
802.840  1.11000000e+02 
802.804  1.06000000e+02 
802.768  1.01000000e+02 
802.732  8.80000000e+01 
802.696  8.80000000e+01 
802.660  1.01000000e+02 
802.624  7.70000000e+01 
802.588  8.90000000e+01 
802.552  8.30000000e+01 
802.516  9.10000000e+01 
802.480  1.10000000e+02 
802.445  1.02000000e+02 
802.409  8.30000000e+01 
802.373  1.02000000e+02 
802.337  1.00000000e+02 
802.301  1.17000000e+02 
802.265  9.70000000e+01 
802.229  1.08000000e+02 
802.193  1.02000000e+02 
802.157  1.21000000e+02 
802.121  1.00000000e+02 
802.085  1.02000000e+02 
802.049  1.15000000e+02 
802.013  1.09000000e+02 
801.977  1.00000000e+02 
801.941  8.90000000e+01 
801.905  1.09000000e+02 
801.870  1.10000000e+02 
801.834  8.90000000e+01 
801.798  1.08000000e+02 
801.762  8.40000000e+01 
801.726  9.60000000e+01 
801.690  1.07000000e+02 
801.654  1.18000000e+02 
801.618  1.04000000e+02 
801.582  9.90000000e+01 
801.546  1.03000000e+02 
801.510  1.04000000e+02 
801.474  9.90000000e+01 
801.438  1.11000000e+02 
801.402  9.10000000e+01 
801.366  1.09000000e+02 
801.330  9.20000000e+01 
801.295  9.30000000e+01 
801.259  8.80000000e+01 
801.223  9.80000000e+01 
801.187  9.20000000e+01 
801.151  9.60000000e+01 
801.115  1.11000000e+02 
801.079  1.06000000e+02 
801.043  1.05000000e+02 
801.007  9.80000000e+01 
800.971  1.02000000e+02 
800.935  1.08000000e+02 
800.899  1.02000000e+02 
800.863  9.80000000e+01 
800.827  9.30000000e+01 
800.791  7.90000000e+01 
800.755  1.01000000e+02 
800.720  1.13000000e+02 
800.684  1.15000000e+02 
800.648  1.04000000e+02 
800.612  1.01000000e+02 
800.576  1.01000000e+02 
800.540  1.11000000e+02 
800.504  9.40000000e+01 
800.468  1.03000000e+02 
800.432  1.03000000e+02 
800.396  1.04000000e+02 
800.360  1.01000000e+02 
800.324  1.19000000e+02 
800.288  9.80000000e+01 
800.252  9.50000000e+01 
800.216  1.01000000e+02 
800.180  9.70000000e+01 
800.145  9.20000000e+01 
800.109  1.08000000e+02 
800.073  9.40000000e+01 
800.037  9.50000000e+01 
800.001  1.06000000e+02 
799.965  1.11000000e+02 
799.929  1.05000000e+02 
799.893  9.80000000e+01 
799.857  1.03000000e+02 
799.821  1.09000000e+02 
799.785  1.14000000e+02 
799.749  1.00000000e+02 
799.713  1.04000000e+02 
799.677  9.20000000e+01 
799.641  1.00000000e+02 
799.605  8.60000000e+01 
799.570  1.03000000e+02 
799.534  1.02000000e+02 
799.498  1.15000000e+02 
799.462  9.00000000e+01 
799.426  9.40000000e+01 
799.390  8.20000000e+01 
799.354  1.12000000e+02 
799.318  1.12000000e+02 
799.282  9.00000000e+01 
799.246  9.40000000e+01 
799.210  1.06000000e+02 
799.174  9.80000000e+01 
799.138  1.05000000e+02 
799.102  1.06000000e+02 
799.066  8.40000000e+01 
799.030  1.03000000e+02 
798.995  9.80000000e+01 
798.959  7.30000000e+01 
798.923  8.90000000e+01 
798.887  1.08000000e+02 
798.851  1.01000000e+02 
798.815  1.00000000e+02 
798.779  8.40000000e+01 
798.743  1.12000000e+02 
798.707  9.10000000e+01 
798.671  1.18000000e+02 
798.635  9.90000000e+01 
798.599  8.50000000e+01 
798.563  8.40000000e+01 
798.527  9.10000000e+01 
798.491  1.05000000e+02 
798.455  1.26000000e+02 
798.420  9.10000000e+01 
798.384  9.10000000e+01 
798.348  9.20000000e+01 
798.312  9.70000000e+01 
798.276  1.00000000e+02 
798.240  9.10000000e+01 
798.204  9.90000000e+01 
798.168  1.14000000e+02 
798.132  8.20000000e+01 
798.096  9.70000000e+01 
798.060  1.08000000e+02 
798.024  9.70000000e+01 
797.988  1.08000000e+02 
797.952  9.80000000e+01 
797.916  1.06000000e+02 
797.880  9.30000000e+01 
797.845  9.70000000e+01 
797.809  8.30000000e+01 
797.773  1.09000000e+02 
797.737  8.80000000e+01 
797.701  1.09000000e+02 
797.665  8.70000000e+01 
797.629  8.90000000e+01 
797.593  1.10000000e+02 
797.557  1.18000000e+02 
797.521  1.08000000e+02 
797.485  1.27000000e+02 
797.449  9.70000000e+01 
797.413  8.60000000e+01 
797.377  9.90000000e+01 
797.341  9.80000000e+01 
797.305  1.05000000e+02 
797.270  9.20000000e+01 
797.234  7.90000000e+01 
797.198  1.03000000e+02 
797.162  1.09000000e+02 
797.126  9.80000000e+01 
797.090  1.00000000e+02 
797.054  8.50000000e+01 
797.018  1.06000000e+02 
796.982  9.00000000e+01 
796.946  9.40000000e+01 
796.910  1.10000000e+02 
796.874  1.07000000e+02 
796.838  9.90000000e+01 
796.802  1.13000000e+02 
796.766  8.80000000e+01 
796.730  9.40000000e+01 
796.695  1.18000000e+02 
796.659  1.01000000e+02 
796.623  1.05000000e+02 
796.587  1.09000000e+02 
796.551  9.70000000e+01 
796.515  9.40000000e+01 
796.479  1.14000000e+02 
796.443  9.30000000e+01 
796.407  9.90000000e+01 
796.371  7.40000000e+01 
796.335  1.09000000e+02 
796.299  8.20000000e+01 
796.263  8.50000000e+01 
796.227  9.60000000e+01 
796.191  9.10000000e+01 
796.155  9.10000000e+01 
796.120  1.03000000e+02 
796.084  9.10000000e+01 
796.048  8.50000000e+01 
796.012  8.60000000e+01 
795.976  7.30000000e+01 
795.940  1.00000000e+02 
795.904  9.70000000e+01 
795.868  1.07000000e+02 
795.832  9.90000000e+01 
795.796  1.08000000e+02 
795.760  9.80000000e+01 
795.724  8.90000000e+01 
795.688  1.06000000e+02 
795.652  1.06000000e+02 
795.616  1.12000000e+02 
795.580  9.40000000e+01 
795.545  8.80000000e+01 
795.509  1.03000000e+02 
795.473  1.03000000e+02 
795.437  9.90000000e+01 
795.401  1.11000000e+02 
795.365  9.20000000e+01 
795.329  1.01000000e+02 
795.293  9.70000000e+01 
795.257  9.00000000e+01 
795.221  9.10000000e+01 
795.185  9.60000000e+01 
795.149  1.06000000e+02 
795.113  9.80000000e+01 
795.077  9.00000000e+01 
795.041  1.00000000e+02 
795.005  9.20000000e+01 
794.970  1.00000000e+02 
794.934  9.60000000e+01 
794.898  9.30000000e+01 
794.862  9.50000000e+01 
794.826  9.80000000e+01 
794.790  9.30000000e+01 
794.754  9.90000000e+01 
794.718  1.03000000e+02 
794.682  1.01000000e+02 
794.646  8.90000000e+01 
794.610  7.80000000e+01 
794.574  9.60000000e+01 
794.538  1.01000000e+02 
794.502  8.60000000e+01 
794.466  1.00000000e+02 
794.430  1.04000000e+02 
794.395  1.12000000e+02 
794.359  1.11000000e+02 
794.323  1.03000000e+02 
794.287  1.15000000e+02 
794.251  8.90000000e+01 
794.215  1.05000000e+02 
794.179  1.04000000e+02 
794.143  1.02000000e+02 
794.107  9.50000000e+01 
794.071  9.80000000e+01 
794.035  8.60000000e+01 
793.999  9.40000000e+01 
793.963  9.30000000e+01 
793.927  1.02000000e+02 
793.891  8.30000000e+01 
793.855  9.20000000e+01 
793.820  9.20000000e+01 
793.784  1.03000000e+02 
793.748  1.17000000e+02 
793.712  9.80000000e+01 
793.676  9.60000000e+01 
793.640  9.90000000e+01 
793.604  1.02000000e+02 
793.568  8.80000000e+01 
793.532  1.01000000e+02 
793.496  9.10000000e+01 
793.460  9.20000000e+01 
793.424  1.20000000e+02 
793.388  9.20000000e+01 
793.352  1.01000000e+02 
793.316  7.30000000e+01 
793.280  1.07000000e+02 
793.245  1.08000000e+02 
793.209  8.60000000e+01 
793.173  8.30000000e+01 
793.137  9.30000000e+01 
793.101  1.17000000e+02 
793.065  8.80000000e+01 
793.029  1.02000000e+02 
792.993  1.04000000e+02 
792.957  1.01000000e+02 
792.921  1.03000000e+02 
792.885  8.10000000e+01 
792.849  9.10000000e+01 
792.813  8.30000000e+01 
792.777  1.02000000e+02 
792.741  7.90000000e+01 
792.705  9.20000000e+01 
792.670  8.90000000e+01 
792.634  1.02000000e+02 
792.598  9.50000000e+01 
792.562  8.90000000e+01 
792.526  1.12000000e+02 
792.490  1.00000000e+02 
792.454  1.06000000e+02 
792.418  9.30000000e+01 
792.382  1.07000000e+02 
792.346  1.06000000e+02 
792.310  1.05000000e+02 
792.274  8.70000000e+01 
792.238  1.14000000e+02 
792.202  1.10000000e+02 
792.166  8.90000000e+01 
792.130  9.20000000e+01 
792.095  1.12000000e+02 
792.059  1.01000000e+02 
792.023  9.00000000e+01 
791.987  1.00000000e+02 
791.951  9.80000000e+01 
791.915  1.08000000e+02 
791.879  8.90000000e+01 
791.843  9.70000000e+01 
791.807  1.01000000e+02 
791.771  1.01000000e+02 
791.735  9.50000000e+01 
791.699  1.04000000e+02 
791.663  9.60000000e+01 
791.627  9.10000000e+01 
791.591  1.19000000e+02 
791.555  1.03000000e+02 
791.520  9.80000000e+01 
791.484  1.13000000e+02 
791.448  1.11000000e+02 
791.412  1.01000000e+02 
791.376  1.22000000e+02 
791.340  9.90000000e+01 
791.304  1.03000000e+02 
791.268  1.18000000e+02 
791.232  1.12000000e+02 
791.196  1.07000000e+02 
791.160  8.80000000e+01 
791.124  1.07000000e+02 
791.088  1.15000000e+02 
791.052  1.06000000e+02 
791.016  9.10000000e+01 
790.980  1.02000000e+02 
790.945  1.02000000e+02 
790.909  1.00000000e+02 
790.873  8.80000000e+01 
790.837  9.20000000e+01 
790.801  1.10000000e+02 
790.765  1.09000000e+02 
790.729  9.10000000e+01 
790.693  8.50000000e+01 
790.657  9.40000000e+01 
790.621  9.30000000e+01 
790.585  1.06000000e+02 
790.549  1.01000000e+02 
790.513  1.00000000e+02 
790.477  1.03000000e+02 
790.441  1.06000000e+02 
790.405  9.90000000e+01 
790.370  1.00000000e+02 
790.334  9.80000000e+01 
790.298  1.09000000e+02 
790.262  9.50000000e+01 
790.226  8.70000000e+01 
790.190  8.00000000e+01 
790.154  9.90000000e+01 
790.118  8.90000000e+01 
790.082  1.27000000e+02 
790.046  1.13000000e+02 
790.010  8.60000000e+01 
789.974  9.00000000e+01 
789.938  9.10000000e+01 
789.902  9.30000000e+01 
789.866  1.13000000e+02 
789.830  9.70000000e+01 
789.795  1.02000000e+02 
789.759  9.20000000e+01 
789.723  1.01000000e+02 
789.687  9.20000000e+01 
789.651  9.80000000e+01 
789.615  9.20000000e+01 
789.579  7.80000000e+01 
789.543  9.70000000e+01 
789.507  9.70000000e+01 
789.471  1.04000000e+02 
789.435  9.20000000e+01 
789.399  1.00000000e+02 
789.363  9.10000000e+01 
789.327  1.02000000e+02 
789.291  9.40000000e+01 
789.255  1.21000000e+02 
789.220  9.40000000e+01 
789.184  9.80000000e+01 
789.148  9.30000000e+01 
789.112  9.20000000e+01 
789.076  9.60000000e+01 
789.040  9.70000000e+01 
789.004  1.01000000e+02 
788.968  9.50000000e+01 
788.932  1.08000000e+02 
788.896  1.02000000e+02 
788.860  1.20000000e+02 
788.824  1.03000000e+02 
788.788  1.00000000e+02 
788.752  1.08000000e+02 
788.716  9.40000000e+01 
788.680  1.03000000e+02 
788.645  9.50000000e+01 
788.609  9.70000000e+01 
788.573  1.08000000e+02 
788.537  9.40000000e+01 
788.501  1.01000000e+02 
788.465  1.04000000e+02 
788.429  1.03000000e+02 
788.393  1.16000000e+02 
788.357  1.02000000e+02 
788.321  9.00000000e+01 
788.285  1.00000000e+02 
788.249  9.20000000e+01 
788.213  8.80000000e+01 
788.177  1.23000000e+02 
788.141  1.02000000e+02 
788.105  8.40000000e+01 
788.070  8.80000000e+01 
788.034  1.08000000e+02 
787.998  8.70000000e+01 
787.962  9.20000000e+01 
787.926  1.03000000e+02 
787.890  9.80000000e+01 
787.854  9.90000000e+01 
787.818  9.80000000e+01 
787.782  9.40000000e+01 
787.746  1.20000000e+02 
787.710  1.11000000e+02 
787.674  9.60000000e+01 
787.638  7.90000000e+01 
787.602  9.70000000e+01 
787.566  8.80000000e+01 
787.530  9.50000000e+01 
787.495  1.29000000e+02 
787.459  8.20000000e+01 
787.423  9.30000000e+01 
787.387  9.30000000e+01 
787.351  9.60000000e+01 
787.315  9.70000000e+01 
787.279  8.60000000e+01 
787.243  1.21000000e+02 
787.207  8.30000000e+01 
787.171  1.18000000e+02 
787.135  9.80000000e+01 
787.099  9.40000000e+01 
787.063  1.04000000e+02 
787.027  1.00000000e+02 
786.991  8.60000000e+01 
786.955  9.70000000e+01 
786.920  9.40000000e+01 
786.884  9.10000000e+01 
786.848  8.80000000e+01 
786.812  8.30000000e+01 
786.776  8.90000000e+01 
786.740  9.40000000e+01 
786.704  9.20000000e+01 
786.668  1.19000000e+02 
786.632  8.70000000e+01 
786.596  9.80000000e+01 
786.560  8.80000000e+01 
786.524  9.50000000e+01 
786.488  1.04000000e+02 
786.452  1.04000000e+02 
786.416  8.60000000e+01 
786.380  8.70000000e+01 
786.345  1.04000000e+02 
786.309  1.10000000e+02 
786.273  9.30000000e+01 
786.237  8.70000000e+01 
786.201  1.12000000e+02 
786.165  1.13000000e+02 
786.129  1.17000000e+02 
786.093  1.07000000e+02 
786.057  1.05000000e+02 
786.021  1.05000000e+02 
785.985  1.08000000e+02 
785.949  1.10000000e+02 
785.913  9.00000000e+01 
785.877  1.06000000e+02 
785.841  1.04000000e+02 
785.805  1.01000000e+02 
785.770  9.80000000e+01 
785.734  8.60000000e+01 
785.698  1.19000000e+02 
785.662  7.90000000e+01 
785.626  8.50000000e+01 
785.590  1.03000000e+02 
785.554  9.90000000e+01 
785.518  1.06000000e+02 
785.482  1.09000000e+02 
785.446  1.11000000e+02 
785.410  8.80000000e+01 
785.374  9.70000000e+01 
785.338  8.80000000e+01 
785.302  1.00000000e+02 
785.266  1.02000000e+02 
785.230  1.06000000e+02 
785.195  1.08000000e+02 
785.159  1.20000000e+02 
785.123  1.03000000e+02 
785.087  7.80000000e+01 
785.051  1.04000000e+02 
785.015  9.60000000e+01 
784.979  1.08000000e+02 
784.943  9.50000000e+01 
784.907  9.00000000e+01 
784.871  1.11000000e+02 
784.835  8.40000000e+01 
784.799  1.03000000e+02 
784.763  8.40000000e+01 
784.727  1.04000000e+02 
784.691  1.14000000e+02 
784.655  9.40000000e+01 
784.620  1.15000000e+02 
784.584  9.10000000e+01 
784.548  1.00000000e+02 
784.512  9.60000000e+01 
784.476  8.20000000e+01 
784.440  1.03000000e+02 
784.404  1.01000000e+02 
784.368  8.50000000e+01 
784.332  1.06000000e+02 
784.296  9.80000000e+01 
784.260  1.01000000e+02 
784.224  8.50000000e+01 
784.188  1.07000000e+02 
784.152  1.03000000e+02 
784.116  9.70000000e+01 
784.080  9.50000000e+01 
784.045  1.06000000e+02 
784.009  9.80000000e+01 
783.973  8.70000000e+01 
783.937  9.70000000e+01 
783.901  1.00000000e+02 
783.865  9.30000000e+01 
783.829  8.30000000e+01 
783.793  9.50000000e+01 
783.757  9.10000000e+01 
783.721  9.10000000e+01 
783.685  1.07000000e+02 
783.649  1.05000000e+02 
783.613  8.60000000e+01 
783.577  8.50000000e+01 
783.541  9.30000000e+01 
783.505  8.00000000e+01 
783.470  1.05000000e+02 
783.434  1.16000000e+02 
783.398  8.10000000e+01 
783.362  9.50000000e+01 
783.326  9.70000000e+01 
783.290  9.00000000e+01 
783.254  8.80000000e+01 
783.218  1.04000000e+02 
783.182  9.40000000e+01 
783.146  9.80000000e+01 
783.110  1.01000000e+02 
783.074  1.05000000e+02 
783.038  1.10000000e+02 
783.002  1.07000000e+02 
782.966  7.90000000e+01 
782.930  9.40000000e+01 
782.895  9.60000000e+01 
782.859  9.00000000e+01 
782.823  9.10000000e+01 
782.787  8.70000000e+01 
782.751  8.90000000e+01 
782.715  9.80000000e+01 
782.679  9.80000000e+01 
782.643  1.04000000e+02 
782.607  1.12000000e+02 
782.571  1.02000000e+02 
782.535  8.40000000e+01 
782.499  1.17000000e+02 
782.463  1.02000000e+02 
782.427  8.60000000e+01 
782.391  1.13000000e+02 
782.355  1.16000000e+02 
782.320  1.07000000e+02 
782.284  9.90000000e+01 
782.248  9.00000000e+01 
782.212  9.80000000e+01 
782.176  1.03000000e+02 
782.140  9.20000000e+01 
782.104  1.09000000e+02 
782.068  1.04000000e+02 
782.032  7.60000000e+01 
781.996  1.11000000e+02 
781.960  9.90000000e+01 
781.924  1.10000000e+02 
781.888  1.05000000e+02 
781.852  8.70000000e+01 
781.816  1.05000000e+02 
781.780  8.60000000e+01 
781.745  9.90000000e+01 
781.709  9.70000000e+01 
781.673  8.80000000e+01 
781.637  8.60000000e+01 
781.601  1.12000000e+02 
781.565  1.00000000e+02 
781.529  8.60000000e+01 
781.493  9.00000000e+01 
781.457  1.04000000e+02 
781.421  1.01000000e+02 
781.385  8.90000000e+01 
781.349  1.10000000e+02 
781.313  8.90000000e+01 
781.277  7.50000000e+01 
781.241  1.02000000e+02 
781.205  1.03000000e+02 
781.170  9.30000000e+01 
781.134  9.00000000e+01 
781.098  1.18000000e+02 
781.062  1.05000000e+02 
781.026  1.00000000e+02 
780.990  1.20000000e+02 
780.954  1.04000000e+02 
780.918  1.19000000e+02 
780.882  8.40000000e+01 
780.846  9.70000000e+01 
780.810  8.30000000e+01 
780.774  9.70000000e+01 
780.738  1.07000000e+02 
780.702  1.00000000e+02 
780.666  1.07000000e+02 
780.630  1.15000000e+02 
780.595  9.50000000e+01 
780.559  9.20000000e+01 
780.523  9.60000000e+01 
780.487  9.50000000e+01 
780.451  7.90000000e+01 
780.415  8.70000000e+01 
780.379  1.12000000e+02 
780.343  1.04000000e+02 
780.307  8.80000000e+01 
780.271  1.02000000e+02 
780.235  1.01000000e+02 
780.199  9.80000000e+01 
780.163  8.80000000e+01 
780.127  9.60000000e+01 
780.091  1.16000000e+02 
780.055  1.01000000e+02 
780.020  9.40000000e+01 
779.984  9.20000000e+01 
779.948  9.00000000e+01 
779.912  9.20000000e+01 
779.876  9.90000000e+01 
779.840  8.90000000e+01 
779.804  9.70000000e+01 
779.768  1.25000000e+02 
779.732  1.01000000e+02 
779.696  8.10000000e+01 
779.660  9.00000000e+01 
779.624  9.50000000e+01 
779.588  1.13000000e+02 
779.552  8.10000000e+01 
779.516  1.15000000e+02 
779.480  9.90000000e+01 
779.445  1.12000000e+02 
779.409  8.00000000e+01 
779.373  9.70000000e+01 
779.337  9.30000000e+01 
779.301  1.02000000e+02 
779.265  1.19000000e+02 
779.229  9.90000000e+01 
779.193  8.90000000e+01 
779.157  9.40000000e+01 
779.121  1.05000000e+02 
779.085  1.01000000e+02 
779.049  8.00000000e+01 
779.013  9.90000000e+01 
778.977  9.60000000e+01 
778.941  9.30000000e+01 
778.905  9.50000000e+01 
778.870  1.01000000e+02 
778.834  8.50000000e+01 
778.798  1.05000000e+02 
778.762  1.04000000e+02 
778.726  9.90000000e+01 
778.690  8.70000000e+01 
778.654  7.50000000e+01 
778.618  9.60000000e+01 
778.582  7.70000000e+01 
778.546  9.80000000e+01 
778.510  9.20000000e+01 
778.474  9.70000000e+01 
778.438  8.50000000e+01 
778.402  9.80000000e+01 
778.366  8.60000000e+01 
778.330  1.00000000e+02 
778.295  1.03000000e+02 
778.259  1.06000000e+02 
778.223  1.08000000e+02 
778.187  9.20000000e+01 
778.151  9.40000000e+01 
778.115  1.10000000e+02 
778.079  9.90000000e+01 
778.043  1.01000000e+02 
778.007  8.30000000e+01 
777.971  1.11000000e+02 
777.935  1.00000000e+02 
777.899  8.00000000e+01 
777.863  9.20000000e+01 
777.827  1.02000000e+02 
777.791  1.12000000e+02 
777.755  9.00000000e+01 
777.720  9.40000000e+01 
777.684  8.50000000e+01 
777.648  9.70000000e+01 
777.612  1.07000000e+02 
777.576  9.80000000e+01 
777.540  7.70000000e+01 
777.504  1.06000000e+02 
777.468  9.90000000e+01 
777.432  8.80000000e+01 
777.396  9.90000000e+01 
777.360  8.50000000e+01 
777.324  1.00000000e+02 
777.288  1.11000000e+02 
777.252  9.40000000e+01 
777.216  9.90000000e+01 
777.180  9.90000000e+01 
777.145  9.00000000e+01 
777.109  9.00000000e+01 
777.073  1.05000000e+02 
777.037  1.31000000e+02 
777.001  1.07000000e+02 
776.965  9.00000000e+01 
776.929  1.02000000e+02 
776.893  8.60000000e+01 
776.857  1.10000000e+02 
776.821  1.01000000e+02 
776.785  9.60000000e+01 
776.749  1.04000000e+02 
776.713  7.60000000e+01 
776.677  9.00000000e+01 
776.641  8.90000000e+01 
776.605  9.70000000e+01 
776.570  9.80000000e+01 
776.534  9.20000000e+01 
776.498  9.90000000e+01 
776.462  9.80000000e+01 
776.426  9.90000000e+01 
776.390  1.03000000e+02 
776.354  1.01000000e+02 
776.318  8.90000000e+01 
776.282  9.10000000e+01 
776.246  8.50000000e+01 
776.210  9.30000000e+01 
776.174  9.30000000e+01 
776.138  1.18000000e+02 
776.102  1.03000000e+02 
776.066  9.70000000e+01 
776.030  9.70000000e+01 
775.995  1.13000000e+02 
775.959  9.30000000e+01 
775.923  1.00000000e+02 
775.887  8.20000000e+01 
775.851  1.05000000e+02 
775.815  1.02000000e+02 
775.779  8.00000000e+01 
775.743  1.06000000e+02 
775.707  8.70000000e+01 
775.671  1.05000000e+02 
775.635  9.80000000e+01 
775.599  9.20000000e+01 
775.563  8.20000000e+01 
775.527  1.21000000e+02 
775.491  9.50000000e+01 
775.455  1.00000000e+02 
775.420  9.50000000e+01 
775.384  9.90000000e+01 
775.348  1.05000000e+02 
775.312  1.18000000e+02 
775.276  1.04000000e+02 
775.240  9.70000000e+01 
775.204  9.00000000e+01 
775.168  1.07000000e+02 
775.132  9.50000000e+01 
775.096  9.20000000e+01 
775.060  1.07000000e+02 
775.024  1.08000000e+02 
774.988  9.30000000e+01 
774.952  8.00000000e+01 
774.916  9.20000000e+01 
774.880  8.20000000e+01 
774.845  1.03000000e+02 
774.809  1.10000000e+02 
774.773  1.07000000e+02 
774.737  1.09000000e+02 
774.701  8.70000000e+01 
774.665  9.20000000e+01 
774.629  8.40000000e+01 
774.593  1.11000000e+02 
774.557  1.02000000e+02 
774.521  7.60000000e+01 
774.485  1.10000000e+02 
774.449  9.00000000e+01 
774.413  8.90000000e+01 
774.377  9.10000000e+01 
774.341  1.05000000e+02 
774.305  8.50000000e+01 
774.270  9.30000000e+01 
774.234  9.90000000e+01 
774.198  9.90000000e+01 
774.162  8.30000000e+01 
774.126  9.00000000e+01 
774.090  1.00000000e+02 
774.054  1.16000000e+02 
774.018  9.70000000e+01 
773.982  8.80000000e+01 
773.946  1.27000000e+02 
773.910  9.30000000e+01 
773.874  8.90000000e+01 
773.838  1.05000000e+02 
773.802  8.70000000e+01 
773.766  8.50000000e+01 
773.730  9.80000000e+01 
773.695  8.70000000e+01 
773.659  7.40000000e+01 
773.623  9.80000000e+01 
773.587  8.60000000e+01 
773.551  8.90000000e+01 
773.515  1.00000000e+02 
773.479  9.60000000e+01 
773.443  8.50000000e+01 
773.407  1.03000000e+02 
773.371  9.10000000e+01 
773.335  1.07000000e+02 
773.299  8.80000000e+01 
773.263  1.09000000e+02 
773.227  8.90000000e+01 
773.191  1.14000000e+02 
773.155  1.10000000e+02 
773.120  1.05000000e+02 
773.084  1.01000000e+02 
773.048  9.70000000e+01 
773.012  9.50000000e+01 
772.976  1.01000000e+02 
772.940  8.00000000e+01 
772.904  9.60000000e+01 
772.868  8.70000000e+01 
772.832  8.90000000e+01 
772.796  9.10000000e+01 
772.760  9.70000000e+01 
772.724  9.10000000e+01 
772.688  9.60000000e+01 
772.652  1.07000000e+02 
772.616  1.02000000e+02 
772.580  8.90000000e+01 
772.545  1.02000000e+02 
772.509  1.00000000e+02 
772.473  8.70000000e+01 
772.437  8.90000000e+01 
772.401  9.30000000e+01 
772.365  9.70000000e+01 
772.329  9.00000000e+01 
772.293  1.02000000e+02 
772.257  9.20000000e+01 
772.221  7.10000000e+01 
772.185  9.70000000e+01 
772.149  9.00000000e+01 
772.113  9.30000000e+01 
772.077  7.90000000e+01 
772.041  9.00000000e+01 
772.005  1.03000000e+02 
771.970  1.01000000e+02 
771.934  8.50000000e+01 
771.898  9.30000000e+01 
771.862  9.60000000e+01 
771.826  1.01000000e+02 
771.790  1.00000000e+02 
771.754  1.02000000e+02 
771.718  8.70000000e+01 
771.682  9.50000000e+01 
771.646  1.10000000e+02 
771.610  8.30000000e+01 
771.574  1.06000000e+02 
771.538  9.30000000e+01 
771.502  9.90000000e+01 
771.466  1.03000000e+02 
771.430  9.90000000e+01 
771.395  8.30000000e+01 
771.359  8.90000000e+01 
771.323  1.00000000e+02 
771.287  9.50000000e+01 
771.251  9.70000000e+01 
771.215  9.00000000e+01 
771.179  1.10000000e+02 
771.143  7.90000000e+01 
771.107  8.60000000e+01 
771.071  1.04000000e+02 
771.035  8.20000000e+01 
770.999  1.13000000e+02 
770.963  1.03000000e+02 
770.927  8.00000000e+01 
770.891  1.06000000e+02 
770.855  8.70000000e+01 
770.820  1.04000000e+02 
770.784  9.70000000e+01 
770.748  9.60000000e+01 
770.712  8.60000000e+01 
770.676  9.50000000e+01 
770.640  1.00000000e+02 
770.604  9.70000000e+01 
770.568  1.08000000e+02 
770.532  8.40000000e+01 
770.496  8.40000000e+01 
770.460  1.06000000e+02 
770.424  9.60000000e+01 
770.388  9.90000000e+01 
770.352  1.12000000e+02 
770.316  9.30000000e+01 
770.280  9.60000000e+01 
770.245  9.00000000e+01 
770.209  8.70000000e+01 
770.173  9.20000000e+01 
770.137  8.10000000e+01 
770.101  8.70000000e+01 
770.065  9.00000000e+01 
770.029  9.80000000e+01 
769.993  1.02000000e+02 
769.957  9.30000000e+01 
769.921  1.01000000e+02 
769.885  1.09000000e+02 
769.849  8.60000000e+01 
769.813  9.30000000e+01 
769.777  1.01000000e+02 
769.741  9.00000000e+01 
769.705  9.80000000e+01 
769.670  8.60000000e+01 
769.634  9.60000000e+01 
769.598  8.90000000e+01 
769.562  9.30000000e+01 
769.526  9.60000000e+01 
769.490  1.01000000e+02 
769.454  8.60000000e+01 
769.418  9.00000000e+01 
769.382  9.80000000e+01 
769.346  1.02000000e+02 
769.310  8.80000000e+01 
769.274  9.90000000e+01 
769.238  1.02000000e+02 
769.202  9.50000000e+01 
769.166  7.20000000e+01 
769.130  9.30000000e+01 
769.095  1.00000000e+02 
769.059  9.80000000e+01 
769.023  9.60000000e+01 
768.987  1.11000000e+02 
768.951  1.02000000e+02 
768.915  8.70000000e+01 
768.879  9.70000000e+01 
768.843  9.00000000e+01 
768.807  9.40000000e+01 
768.771  7.30000000e+01 
768.735  1.01000000e+02 
768.699  9.50000000e+01 
768.663  7.10000000e+01 
768.627  8.80000000e+01 
768.591  1.04000000e+02 
768.555  8.20000000e+01 
768.520  8.20000000e+01 
768.484  8.40000000e+01 
768.448  8.90000000e+01 
768.412  9.10000000e+01 
768.376  8.10000000e+01 
768.340  9.50000000e+01 
768.304  9.50000000e+01 
768.268  6.70000000e+01 
768.232  9.50000000e+01 
768.196  1.15000000e+02 
768.160  9.50000000e+01 
768.124  9.90000000e+01 
768.088  1.03000000e+02 
768.052  8.80000000e+01 
768.016  9.70000000e+01 
767.980  7.70000000e+01 
767.945  8.90000000e+01 
767.909  1.03000000e+02 
767.873  8.80000000e+01 
767.837  9.70000000e+01 
767.801  8.10000000e+01 
767.765  9.70000000e+01 
767.729  1.16000000e+02 
767.693  1.04000000e+02 
767.657  8.50000000e+01 
767.621  9.80000000e+01 
767.585  8.60000000e+01 
767.549  8.90000000e+01 
767.513  8.30000000e+01 
767.477  1.18000000e+02 
767.441  9.10000000e+01 
767.405  9.00000000e+01 
767.370  9.90000000e+01 
767.334  7.40000000e+01 
767.298  8.60000000e+01 
767.262  8.90000000e+01 
767.226  9.40000000e+01 
767.190  7.60000000e+01 
767.154  7.90000000e+01 
767.118  9.60000000e+01 
767.082  9.80000000e+01 
767.046  9.40000000e+01 
767.010  9.70000000e+01 
766.974  9.10000000e+01 
766.938  9.30000000e+01 
766.902  9.00000000e+01 
766.866  1.02000000e+02 
766.830  9.20000000e+01 
766.795  1.01000000e+02 
766.759  9.00000000e+01 
766.723  9.00000000e+01 
766.687  8.10000000e+01 
766.651  7.50000000e+01 
766.615  1.03000000e+02 
766.579  8.20000000e+01 
766.543  8.00000000e+01 
766.507  9.10000000e+01 
766.471  8.80000000e+01 
766.435  9.60000000e+01 
766.399  1.00000000e+02 
766.363  8.80000000e+01 
766.327  1.02000000e+02 
766.291  1.06000000e+02 
766.255  9.30000000e+01 
766.220  9.00000000e+01 
766.184  1.02000000e+02 
766.148  9.20000000e+01 
766.112  8.50000000e+01 
766.076  1.00000000e+02 
766.040  9.70000000e+01 
766.004  7.10000000e+01 
765.968  6.10000000e+01 
765.932  9.10000000e+01 
765.896  9.50000000e+01 
765.860  7.30000000e+01 
765.824  8.90000000e+01 
765.788  8.50000000e+01 
765.752  9.30000000e+01 
765.716  8.70000000e+01 
765.680  9.50000000e+01 
765.645  1.06000000e+02 
765.609  9.10000000e+01 
765.573  8.20000000e+01 
765.537  9.30000000e+01 
765.501  9.10000000e+01 
765.465  8.50000000e+01 
765.429  8.40000000e+01 
765.393  9.30000000e+01 
765.357  1.12000000e+02 
765.321  9.10000000e+01 
765.285  7.70000000e+01 
765.249  1.01000000e+02 
765.213  1.00000000e+02 
765.177  1.06000000e+02 
765.141  1.02000000e+02 
765.105  9.30000000e+01 
765.070  9.30000000e+01 
765.034  8.50000000e+01 
764.998  1.01000000e+02 
764.962  9.80000000e+01 
764.926  8.60000000e+01 
764.890  7.70000000e+01 
764.854  8.60000000e+01 
764.818  6.70000000e+01 
764.782  9.60000000e+01 
764.746  8.30000000e+01 
764.710  1.13000000e+02 
764.674  8.90000000e+01 
764.638  8.10000000e+01 
764.602  1.00000000e+02 
764.566  7.40000000e+01 
764.530  1.00000000e+02 
764.495  8.30000000e+01 
764.459  1.01000000e+02 
764.423  1.03000000e+02 
764.387  9.40000000e+01 
764.351  1.03000000e+02 
764.315  8.80000000e+01 
764.279  9.10000000e+01 
764.243  7.60000000e+01 
764.207  9.20000000e+01 
764.171  9.40000000e+01 
764.135  8.20000000e+01 
764.099  1.04000000e+02 
764.063  1.05000000e+02 
764.027  9.90000000e+01 
763.991  9.00000000e+01 
763.955  1.12000000e+02 
763.920  8.90000000e+01 
763.884  1.08000000e+02 
763.848  1.04000000e+02 
763.812  9.40000000e+01 
763.776  1.00000000e+02 
763.740  9.50000000e+01 
763.704  9.10000000e+01 
763.668  8.30000000e+01 
763.632  1.07000000e+02 
763.596  9.10000000e+01 
763.560  9.10000000e+01 
763.524  8.70000000e+01 
763.488  8.50000000e+01 
763.452  8.60000000e+01 
763.416  9.30000000e+01 
763.380  1.10000000e+02 
763.345  8.60000000e+01 
763.309  1.07000000e+02 
763.273  1.05000000e+02 
763.237  9.50000000e+01 
763.201  9.30000000e+01 
763.165  8.70000000e+01 
763.129  9.20000000e+01 
763.093  9.10000000e+01 
763.057  1.00000000e+02 
763.021  1.07000000e+02 
762.985  1.12000000e+02 
762.949  9.00000000e+01 
762.913  8.30000000e+01 
762.877  9.90000000e+01 
762.841  8.30000000e+01 
762.805  9.90000000e+01 
762.770  9.70000000e+01 
762.734  1.11000000e+02 
762.698  9.20000000e+01 
762.662  1.00000000e+02 
762.626  1.16000000e+02 
762.590  8.10000000e+01 
762.554  9.00000000e+01 
762.518  7.90000000e+01 
762.482  9.90000000e+01 
762.446  7.20000000e+01 
762.410  8.00000000e+01 
762.374  9.50000000e+01 
762.338  8.40000000e+01 
762.302  1.02000000e+02 
762.266  9.40000000e+01 
762.230  9.40000000e+01 
762.195  1.02000000e+02 
762.159  1.03000000e+02 
762.123  8.70000000e+01 
762.087  8.80000000e+01 
762.051  8.00000000e+01 
762.015  1.06000000e+02 
761.979  1.00000000e+02 
761.943  8.80000000e+01 
761.907  1.00000000e+02 
761.871  8.70000000e+01 
761.835  8.60000000e+01 
761.799  8.80000000e+01 
761.763  1.00000000e+02 
761.727  8.90000000e+01 
761.691  8.90000000e+01 
761.655  1.00000000e+02 
761.620  8.90000000e+01 
761.584  8.50000000e+01 
761.548  1.08000000e+02 
761.512  8.40000000e+01 
761.476  7.80000000e+01 
761.440  9.10000000e+01 
761.404  1.02000000e+02 
761.368  9.10000000e+01 
761.332  1.10000000e+02 
761.296  9.60000000e+01 
761.260  9.00000000e+01 
761.224  1.01000000e+02 
761.188  1.03000000e+02 
761.152  8.60000000e+01 
761.116  1.03000000e+02 
761.080  9.10000000e+01 
761.045  8.30000000e+01 
761.009  8.30000000e+01 
760.973  9.50000000e+01 
760.937  9.10000000e+01 
760.901  1.04000000e+02 
760.865  9.20000000e+01 
760.829  1.02000000e+02 
760.793  8.50000000e+01 
760.757  8.70000000e+01 
760.721  7.30000000e+01 
760.685  9.60000000e+01 
760.649  9.90000000e+01 
760.613  1.12000000e+02 
760.577  8.50000000e+01 
760.541  9.40000000e+01 
760.505  8.80000000e+01 
760.470  8.50000000e+01 
760.434  9.50000000e+01 
760.398  8.50000000e+01 
760.362  8.60000000e+01 
760.326  1.09000000e+02 
760.290  9.20000000e+01 
760.254  1.02000000e+02 
760.218  9.60000000e+01 
760.182  1.07000000e+02 
760.146  8.90000000e+01 
760.110  1.07000000e+02 
760.074  8.60000000e+01 
760.038  1.06000000e+02 
760.002  9.20000000e+01 
759.966  8.50000000e+01 
759.930  1.01000000e+02 
759.895  7.90000000e+01 
759.859  1.08000000e+02 
759.823  8.90000000e+01 
759.787  7.90000000e+01 
759.751  8.80000000e+01 
759.715  9.50000000e+01 
759.679  9.20000000e+01 
759.643  1.02000000e+02 
759.607  1.07000000e+02 
759.571  8.90000000e+01 
759.535  7.50000000e+01 
759.499  1.09000000e+02 
759.463  7.50000000e+01 
759.427  9.20000000e+01 
759.391  1.02000000e+02 
759.355  8.90000000e+01 
759.320  8.40000000e+01 
759.284  8.20000000e+01 
759.248  1.10000000e+02 
759.212  1.11000000e+02 
759.176  7.90000000e+01 
759.140  9.80000000e+01 
759.104  9.00000000e+01 
759.068  9.50000000e+01 
759.032  9.50000000e+01 
758.996  8.90000000e+01 
758.960  7.10000000e+01 
758.924  9.20000000e+01 
758.888  9.40000000e+01 
758.852  9.20000000e+01 
758.816  9.00000000e+01 
758.780  1.08000000e+02 
758.745  1.04000000e+02 
758.709  8.80000000e+01 
758.673  1.03000000e+02 
758.637  8.70000000e+01 
758.601  9.30000000e+01 
758.565  8.80000000e+01 
758.529  8.20000000e+01 
758.493  9.90000000e+01 
758.457  1.06000000e+02 
758.421  9.50000000e+01 
758.385  9.40000000e+01 
758.349  9.00000000e+01 
758.313  8.90000000e+01 
758.277  9.30000000e+01 
758.241  7.30000000e+01 
758.205  8.00000000e+01 
758.170  8.90000000e+01 
758.134  9.80000000e+01 
758.098  9.20000000e+01 
758.062  7.70000000e+01 
758.026  8.10000000e+01 
757.990  9.80000000e+01 
757.954  8.10000000e+01 
757.918  1.02000000e+02 
757.882  1.05000000e+02 
757.846  1.00000000e+02 
757.810  9.80000000e+01 
757.774  1.01000000e+02 
757.738  7.10000000e+01 
757.702  9.50000000e+01 
757.666  1.01000000e+02 
757.630  1.01000000e+02 
757.595  1.13000000e+02 
757.559  9.20000000e+01 
757.523  1.01000000e+02 
757.487  8.90000000e+01 
757.451  9.60000000e+01 
757.415  8.00000000e+01 
757.379  9.70000000e+01 
757.343  9.20000000e+01 
757.307  9.10000000e+01 
757.271  9.10000000e+01 
757.235  9.70000000e+01 
757.199  9.70000000e+01 
757.163  9.50000000e+01 
757.127  8.80000000e+01 
757.091  9.10000000e+01 
757.055  1.03000000e+02 
757.020  1.17000000e+02 
756.984  1.01000000e+02 
756.948  1.00000000e+02 
756.912  1.04000000e+02 
756.876  8.80000000e+01 
756.840  1.12000000e+02 
756.804  1.07000000e+02 
756.768  9.00000000e+01 
756.732  9.60000000e+01 
756.696  9.70000000e+01 
756.660  6.60000000e+01 
756.624  9.00000000e+01 
756.588  7.40000000e+01 
756.552  7.20000000e+01 
756.516  1.05000000e+02 
756.480  1.02000000e+02 
756.445  8.80000000e+01 
756.409  1.01000000e+02 
756.373  9.30000000e+01 
756.337  8.20000000e+01 
756.301  1.20000000e+02 
756.265  8.00000000e+01 
756.229  8.70000000e+01 
756.193  9.60000000e+01 
756.157  9.70000000e+01 
756.121  9.20000000e+01 
756.085  9.00000000e+01 
756.049  9.80000000e+01 
756.013  7.80000000e+01 
755.977  8.40000000e+01 
755.941  8.10000000e+01 
755.905  9.40000000e+01 
755.870  1.09000000e+02 
755.834  9.40000000e+01 
755.798  8.90000000e+01 
755.762  8.50000000e+01 
755.726  8.90000000e+01 
755.690  8.50000000e+01 
755.654  9.50000000e+01 
755.618  1.03000000e+02 
755.582  9.30000000e+01 
755.546  8.90000000e+01 
755.510  9.60000000e+01 
755.474  9.10000000e+01 
755.438  9.40000000e+01 
755.402  1.02000000e+02 
755.366  9.60000000e+01 
755.330  9.30000000e+01 
755.295  1.00000000e+02 
755.259  9.70000000e+01 
755.223  9.10000000e+01 
755.187  8.20000000e+01 
755.151  1.03000000e+02 
755.115  8.70000000e+01 
755.079  8.80000000e+01 
755.043  8.00000000e+01 
755.007  7.80000000e+01 
754.971  8.80000000e+01 
754.935  9.20000000e+01 
754.899  8.60000000e+01 
754.863  8.10000000e+01 
754.827  9.90000000e+01 
754.791  9.70000000e+01 
754.755  8.10000000e+01 
754.720  9.30000000e+01 
754.684  7.40000000e+01 
754.648  1.03000000e+02 
754.612  1.02000000e+02 
754.576  8.90000000e+01 
754.540  1.05000000e+02 
754.504  9.30000000e+01 
754.468  9.30000000e+01 
754.432  9.30000000e+01 
754.396  9.10000000e+01 
754.360  8.50000000e+01 
754.324  1.03000000e+02 
754.288  1.02000000e+02 
754.252  1.01000000e+02 
754.216  1.03000000e+02 
754.180  9.70000000e+01 
754.145  9.10000000e+01 
754.109  1.00000000e+02 
754.073  9.30000000e+01 
754.037  1.04000000e+02 
754.001  8.40000000e+01 
753.965  9.50000000e+01 
753.929  8.90000000e+01 
753.893  8.80000000e+01 
753.857  8.90000000e+01 
753.821  9.90000000e+01 
753.785  8.40000000e+01 
753.749  8.10000000e+01 
753.713  1.08000000e+02 
753.677  1.01000000e+02 
753.641  8.70000000e+01 
753.605  7.50000000e+01 
753.570  9.30000000e+01 
753.534  7.60000000e+01 
753.498  1.12000000e+02 
753.462  1.01000000e+02 
753.426  8.90000000e+01 
753.390  7.80000000e+01 
753.354  1.09000000e+02 
753.318  9.80000000e+01 
753.282  8.70000000e+01 
753.246  9.00000000e+01 
753.210  9.40000000e+01 
753.174  9.60000000e+01 
753.138  9.10000000e+01 
753.102  8.10000000e+01 
753.066  1.00000000e+02 
753.030  9.50000000e+01 
752.995  9.00000000e+01 
752.959  7.80000000e+01 
752.923  1.00000000e+02 
752.887  8.20000000e+01 
752.851  9.00000000e+01 
752.815  9.70000000e+01 
752.779  1.16000000e+02 
752.743  9.80000000e+01 
752.707  1.01000000e+02 
752.671  8.90000000e+01 
752.635  9.80000000e+01 
752.599  1.05000000e+02 
752.563  9.50000000e+01 
752.527  9.70000000e+01 
752.491  8.90000000e+01 
752.455  1.01000000e+02 
752.420  9.10000000e+01 
752.384  9.70000000e+01 
752.348  7.40000000e+01 
752.312  8.90000000e+01 
752.276  9.30000000e+01 
752.240  8.10000000e+01 
752.204  1.13000000e+02 
752.168  8.80000000e+01 
752.132  9.20000000e+01 
752.096  8.50000000e+01 
752.060  9.70000000e+01 
752.024  7.90000000e+01 
751.988  9.50000000e+01 
751.952  9.00000000e+01 
751.916  9.70000000e+01 
751.880  9.60000000e+01 
751.845  1.05000000e+02 
751.809  9.50000000e+01 
751.773  1.03000000e+02 
751.737  1.03000000e+02 
751.701  1.07000000e+02 
751.665  9.80000000e+01 
751.629  1.09000000e+02 
751.593  9.30000000e+01 
751.557  8.10000000e+01 
751.521  8.70000000e+01 
751.485  8.60000000e+01 
751.449  1.00000000e+02 
751.413  1.09000000e+02 
751.377  9.50000000e+01 
751.341  9.20000000e+01 
751.305  9.10000000e+01 
751.270  9.00000000e+01 
751.234  8.50000000e+01 
751.198  9.10000000e+01 
751.162  9.60000000e+01 
751.126  7.90000000e+01 
751.090  9.60000000e+01 
751.054  8.70000000e+01 
751.018  9.70000000e+01 
750.982  1.00000000e+02 
750.946  1.06000000e+02 
750.910  9.90000000e+01 
750.874  8.80000000e+01 
750.838  9.20000000e+01 
750.802  9.10000000e+01 
750.766  8.60000000e+01 
750.730  1.16000000e+02 
750.695  7.80000000e+01 
750.659  9.00000000e+01 
750.623  9.30000000e+01 
750.587  1.01000000e+02 
750.551  8.60000000e+01 
750.515  8.90000000e+01 
750.479  1.00000000e+02 
750.443  8.10000000e+01 
750.407  8.60000000e+01 
750.371  9.10000000e+01 
750.335  9.30000000e+01 
750.299  1.06000000e+02 
750.263  9.30000000e+01 
750.227  9.00000000e+01 
750.191  1.04000000e+02 
750.155  7.60000000e+01 
750.120  9.90000000e+01 
750.084  9.30000000e+01 
750.048  1.05000000e+02 
750.012  8.80000000e+01 
749.976  1.14000000e+02 
749.940  9.80000000e+01 
749.904  1.15000000e+02 
749.868  1.05000000e+02 
749.832  8.10000000e+01 
749.796  1.08000000e+02 
749.760  9.40000000e+01 
749.724  8.10000000e+01 
749.688  9.00000000e+01 
749.652  1.03000000e+02 
749.616  9.40000000e+01 
749.580  1.15000000e+02 
749.545  8.90000000e+01 
749.509  1.01000000e+02 
749.473  1.07000000e+02 
749.437  9.50000000e+01 
749.401  1.02000000e+02 
749.365  8.70000000e+01 
749.329  1.06000000e+02 
749.293  1.02000000e+02 
749.257  8.90000000e+01 
749.221  8.10000000e+01 
749.185  8.60000000e+01 
749.149  1.02000000e+02 
749.113  9.00000000e+01 
749.077  1.01000000e+02 
749.041  1.00000000e+02 
749.005  8.80000000e+01 
748.970  9.90000000e+01 
748.934  8.90000000e+01 
748.898  9.20000000e+01 
748.862  8.60000000e+01 
748.826  9.30000000e+01 
748.790  8.90000000e+01 
748.754  7.00000000e+01 
748.718  9.20000000e+01 
748.682  1.05000000e+02 
748.646  7.90000000e+01 
748.610  1.00000000e+02 
748.574  9.40000000e+01 
748.538  1.04000000e+02 
748.502  9.00000000e+01 
748.466  8.10000000e+01 
748.430  1.13000000e+02 
748.395  8.10000000e+01 
748.359  9.30000000e+01 
748.323  8.80000000e+01 
748.287  1.01000000e+02 
748.251  9.90000000e+01 
748.215  1.03000000e+02 
748.179  9.20000000e+01 
748.143  1.13000000e+02 
748.107  8.30000000e+01 
748.071  9.60000000e+01 
748.035  8.50000000e+01 
747.999  8.70000000e+01 
747.963  1.09000000e+02 
747.927  9.50000000e+01 
747.891  9.90000000e+01 
747.855  9.60000000e+01 
747.820  1.13000000e+02 
747.784  8.80000000e+01 
747.748  9.80000000e+01 
747.712  8.60000000e+01 
747.676  8.10000000e+01 
747.640  9.40000000e+01 
747.604  9.00000000e+01 
747.568  9.30000000e+01 
747.532  9.50000000e+01 
747.496  9.20000000e+01 
747.460  8.80000000e+01 
747.424  8.90000000e+01 
747.388  1.03000000e+02 
747.352  1.06000000e+02 
747.316  1.05000000e+02 
747.280  8.80000000e+01 
747.245  1.07000000e+02 
747.209  9.90000000e+01 
747.173  1.11000000e+02 
747.137  8.90000000e+01 
747.101  9.00000000e+01 
747.065  8.20000000e+01 
747.029  9.60000000e+01 
746.993  1.04000000e+02 
746.957  9.50000000e+01 
746.921  9.10000000e+01 
746.885  1.00000000e+02 
746.849  8.80000000e+01 
746.813  8.10000000e+01 
746.777  7.90000000e+01 
746.741  9.80000000e+01 
746.705  9.50000000e+01 
746.670  8.90000000e+01 
746.634  8.40000000e+01 
746.598  9.50000000e+01 
746.562  8.60000000e+01 
746.526  1.09000000e+02 
746.490  1.19000000e+02 
746.454  1.03000000e+02 
746.418  8.40000000e+01 
746.382  9.00000000e+01 
746.346  9.80000000e+01 
746.310  8.90000000e+01 
746.274  9.10000000e+01 
746.238  1.09000000e+02 
746.202  1.01000000e+02 
746.166  9.50000000e+01 
746.130  9.00000000e+01 
746.095  8.50000000e+01 
746.059  8.90000000e+01 
746.023  9.50000000e+01 
745.987  9.50000000e+01 
745.951  9.40000000e+01 
745.915  8.80000000e+01 
745.879  8.20000000e+01 
745.843  9.80000000e+01 
745.807  9.90000000e+01 
745.771  1.06000000e+02 
745.735  9.10000000e+01 
745.699  8.10000000e+01 
745.663  9.40000000e+01 
745.627  9.70000000e+01 
745.591  1.14000000e+02 
745.555  9.10000000e+01 
745.520  9.10000000e+01 
745.484  7.60000000e+01 
745.448  9.20000000e+01 
745.412  9.50000000e+01 
745.376  9.90000000e+01 
745.340  8.70000000e+01 
745.304  8.60000000e+01 
745.268  9.50000000e+01 
745.232  8.60000000e+01 
745.196  9.70000000e+01 
745.160  8.60000000e+01 
745.124  9.30000000e+01 
745.088  8.30000000e+01 
745.052  9.60000000e+01 
745.016  8.40000000e+01 
744.980  9.60000000e+01 
744.945  9.40000000e+01 
744.909  1.00000000e+02 
744.873  9.00000000e+01 
744.837  8.40000000e+01 
744.801  8.40000000e+01 
744.765  8.30000000e+01 
744.729  1.02000000e+02 
744.693  1.01000000e+02 
744.657  1.00000000e+02 
744.621  1.05000000e+02 
744.585  1.05000000e+02 
744.549  9.00000000e+01 
744.513  9.70000000e+01 
744.477  8.30000000e+01 
744.441  9.00000000e+01 
744.405  9.10000000e+01 
744.370  1.05000000e+02 
744.334  7.80000000e+01 
744.298  9.30000000e+01 
744.262  8.90000000e+01 
744.226  1.08000000e+02 
744.190  9.90000000e+01 
744.154  1.02000000e+02 
744.118  8.80000000e+01 
744.082  9.30000000e+01 
744.046  1.14000000e+02 
744.010  8.40000000e+01 
743.974  9.20000000e+01 
743.938  1.00000000e+02 
743.902  9.90000000e+01 
743.866  8.90000000e+01 
743.830  8.50000000e+01 
743.795  1.02000000e+02 
743.759  9.70000000e+01 
743.723  8.90000000e+01 
743.687  9.70000000e+01 
743.651  8.70000000e+01 
743.615  9.20000000e+01 
743.579  8.30000000e+01 
743.543  1.06000000e+02 
743.507  9.80000000e+01 
743.471  9.30000000e+01 
743.435  9.10000000e+01 
743.399  9.30000000e+01 
743.363  9.30000000e+01 
743.327  8.90000000e+01 
743.291  8.80000000e+01 
743.255  1.08000000e+02 
743.220  9.20000000e+01 
743.184  8.60000000e+01 
743.148  7.30000000e+01 
743.112  8.00000000e+01 
743.076  8.90000000e+01 
743.040  9.70000000e+01 
743.004  9.20000000e+01 
742.968  9.20000000e+01 
742.932  1.24000000e+02 
742.896  8.60000000e+01 
742.860  9.70000000e+01 
742.824  9.60000000e+01 
742.788  8.40000000e+01 
742.752  7.40000000e+01 
742.716  9.20000000e+01 
742.680  7.60000000e+01 
742.645  9.50000000e+01 
742.609  9.60000000e+01 
742.573  1.00000000e+02 
742.537  9.60000000e+01 
742.501  8.70000000e+01 
742.465  9.20000000e+01 
742.429  9.10000000e+01 
742.393  9.20000000e+01 
742.357  1.05000000e+02 
742.321  6.50000000e+01 
742.285  9.80000000e+01 
742.249  1.03000000e+02 
742.213  1.01000000e+02 
742.177  1.06000000e+02 
742.141  8.40000000e+01 
742.105  8.90000000e+01 
742.070  8.70000000e+01 
742.034  9.70000000e+01 
741.998  8.30000000e+01 
741.962  8.70000000e+01 
741.926  8.80000000e+01 
741.890  7.00000000e+01 
741.854  9.80000000e+01 
741.818  1.13000000e+02 
741.782  8.10000000e+01 
741.746  7.60000000e+01 
741.710  1.07000000e+02 
741.674  8.00000000e+01 
741.638  7.80000000e+01 
741.602  9.30000000e+01 
741.566  7.90000000e+01 
741.530  8.10000000e+01 
741.495  8.10000000e+01 
741.459  9.10000000e+01 
741.423  6.40000000e+01 
741.387  8.60000000e+01 
741.351  9.60000000e+01 
741.315  7.10000000e+01 
741.279  9.90000000e+01 
741.243  8.40000000e+01 
741.207  7.50000000e+01 
741.171  8.70000000e+01 
741.135  9.70000000e+01 
741.099  1.03000000e+02 
741.063  9.30000000e+01 
741.027  9.00000000e+01 
740.991  8.40000000e+01 
740.955  1.03000000e+02 
740.920  8.50000000e+01 
740.884  1.00000000e+02 
740.848  1.01000000e+02 
740.812  9.50000000e+01 
740.776  8.50000000e+01 
740.740  9.30000000e+01 
740.704  1.12000000e+02 
740.668  1.02000000e+02 
740.632  9.80000000e+01 
740.596  9.20000000e+01 
740.560  8.70000000e+01 
740.524  8.50000000e+01 
740.488  8.40000000e+01 
740.452  8.50000000e+01 
740.416  8.80000000e+01 
740.380  9.70000000e+01 
740.345  8.10000000e+01 
740.309  8.70000000e+01 
740.273  6.70000000e+01 
740.237  9.10000000e+01 
740.201  9.00000000e+01 
740.165  1.01000000e+02 
740.129  1.05000000e+02 
740.093  8.90000000e+01 
740.057  8.50000000e+01 
740.021  8.40000000e+01 
739.985  9.60000000e+01 
739.949  9.90000000e+01 
739.913  7.50000000e+01 
739.877  8.40000000e+01 
739.841  7.60000000e+01 
739.805  9.10000000e+01 
739.770  8.10000000e+01 
739.734  1.06000000e+02 
739.698  8.70000000e+01 
739.662  8.60000000e+01 
739.626  9.30000000e+01 
739.590  9.10000000e+01 
739.554  9.50000000e+01 
739.518  9.40000000e+01 
739.482  9.30000000e+01 
739.446  9.40000000e+01 
739.410  9.10000000e+01 
739.374  9.10000000e+01 
739.338  9.40000000e+01 
739.302  7.80000000e+01 
739.266  7.50000000e+01 
739.230  8.10000000e+01 
739.195  1.11000000e+02 
739.159  9.70000000e+01 
739.123  9.80000000e+01 
739.087  7.70000000e+01 
739.051  9.90000000e+01 
739.015  8.80000000e+01 
738.979  9.20000000e+01 
738.943  7.30000000e+01 
738.907  8.80000000e+01 
738.871  9.60000000e+01 
738.835  9.60000000e+01 
738.799  1.02000000e+02 
738.763  8.30000000e+01 
738.727  8.10000000e+01 
738.691  9.70000000e+01 
738.655  7.40000000e+01 
738.620  8.80000000e+01 
738.584  9.50000000e+01 
738.548  9.10000000e+01 
738.512  9.50000000e+01 
738.476  8.70000000e+01 
738.440  9.30000000e+01 
738.404  8.30000000e+01 
738.368  8.40000000e+01 
738.332  8.90000000e+01 
738.296  8.40000000e+01 
738.260  7.20000000e+01 
738.224  9.60000000e+01 
738.188  1.02000000e+02 
738.152  1.08000000e+02 
738.116  9.70000000e+01 
738.080  1.04000000e+02 
738.045  9.10000000e+01 
738.009  9.40000000e+01 
737.973  9.80000000e+01 
737.937  8.30000000e+01 
737.901  9.40000000e+01 
737.865  9.10000000e+01 
737.829  9.60000000e+01 
737.793  8.80000000e+01 
737.757  9.30000000e+01 
737.721  8.30000000e+01 
737.685  9.50000000e+01 
737.649  9.50000000e+01 
737.613  1.02000000e+02 
737.577  9.80000000e+01 
737.541  1.13000000e+02 
737.505  1.06000000e+02 
737.470  8.80000000e+01 
737.434  1.02000000e+02 
737.398  1.01000000e+02 
737.362  1.04000000e+02 
737.326  9.70000000e+01 
737.290  1.00000000e+02 
737.254  9.20000000e+01 
737.218  1.04000000e+02 
737.182  9.80000000e+01 
737.146  8.80000000e+01 
737.110  8.70000000e+01 
737.074  8.80000000e+01 
737.038  9.90000000e+01 
737.002  1.04000000e+02 
736.966  9.00000000e+01 
736.930  8.70000000e+01 
736.895  8.50000000e+01 
736.859  7.60000000e+01 
736.823  8.80000000e+01 
736.787  9.70000000e+01 
736.751  8.20000000e+01 
736.715  1.08000000e+02 
736.679  7.50000000e+01 
736.643  7.60000000e+01 
736.607  8.30000000e+01 
736.571  1.01000000e+02 
736.535  8.50000000e+01 
736.499  9.60000000e+01 
736.463  8.90000000e+01 
736.427  8.40000000e+01 
736.391  1.02000000e+02 
736.355  9.70000000e+01 
736.320  8.70000000e+01 
736.284  7.90000000e+01 
736.248  1.01000000e+02 
736.212  8.80000000e+01 
736.176  9.60000000e+01 
736.140  1.12000000e+02 
736.104  1.04000000e+02 
736.068  9.20000000e+01 
736.032  9.00000000e+01 
735.996  8.90000000e+01 
735.960  8.20000000e+01 
735.924  9.50000000e+01 
735.888  9.10000000e+01 
735.852  9.50000000e+01 
735.816  9.70000000e+01 
735.780  9.30000000e+01 
735.745  1.15000000e+02 
735.709  9.30000000e+01 
735.673  8.90000000e+01 
735.637  7.70000000e+01 
735.601  6.70000000e+01 
735.565  6.90000000e+01 
735.529  7.90000000e+01 
735.493  8.80000000e+01 
735.457  7.10000000e+01 
735.421  9.20000000e+01 
735.385  1.06000000e+02 
735.349  7.50000000e+01 
735.313  9.10000000e+01 
735.277  9.70000000e+01 
735.241  9.40000000e+01 
735.205  1.03000000e+02 
735.170  9.30000000e+01 
735.134  7.90000000e+01 
735.098  9.30000000e+01 
735.062  1.02000000e+02 
735.026  8.10000000e+01 
734.990  9.80000000e+01 
734.954  8.20000000e+01 
734.918  8.30000000e+01 
734.882  1.10000000e+02 
734.846  9.00000000e+01 
734.810  1.00000000e+02 
734.774  8.30000000e+01 
734.738  8.00000000e+01 
734.702  7.70000000e+01 
734.666  1.10000000e+02 
734.630  1.06000000e+02 
734.595  1.09000000e+02 
734.559  9.50000000e+01 
734.523  9.50000000e+01 
734.487  1.08000000e+02 
734.451  9.30000000e+01 
734.415  8.20000000e+01 
734.379  8.50000000e+01 
734.343  8.20000000e+01 
734.307  8.50000000e+01 
734.271  9.00000000e+01 
734.235  9.50000000e+01 
734.199  1.02000000e+02 
734.163  1.04000000e+02 
734.127  8.90000000e+01 
734.091  9.90000000e+01 
734.055  8.10000000e+01 
734.020  8.90000000e+01 
733.984  9.80000000e+01 
733.948  8.80000000e+01 
733.912  8.30000000e+01 
733.876  9.40000000e+01 
733.840  9.30000000e+01 
733.804  8.50000000e+01 
733.768  9.20000000e+01 
733.732  8.80000000e+01 
733.696  8.00000000e+01 
733.660  9.40000000e+01 
733.624  8.70000000e+01 
733.588  7.80000000e+01 
733.552  9.00000000e+01 
733.516  8.90000000e+01 
733.480  8.50000000e+01 
733.445  8.00000000e+01 
733.409  1.01000000e+02 
733.373  8.10000000e+01 
733.337  9.40000000e+01 
733.301  8.40000000e+01 
733.265  1.08000000e+02 
733.229  8.40000000e+01 
733.193  8.20000000e+01 
733.157  8.10000000e+01 
733.121  7.00000000e+01 
733.085  7.50000000e+01 
733.049  8.40000000e+01 
733.013  8.60000000e+01 
732.977  1.00000000e+02 
732.941  1.10000000e+02 
732.905  1.04000000e+02 
732.870  7.70000000e+01 
732.834  9.70000000e+01 
732.798  9.10000000e+01 
732.762  8.50000000e+01 
732.726  8.00000000e+01 
732.690  1.07000000e+02 
732.654  9.10000000e+01 
732.618  7.20000000e+01 
732.582  9.20000000e+01 
732.546  8.10000000e+01 
732.510  1.01000000e+02 
732.474  9.50000000e+01 
732.438  9.10000000e+01 
732.402  9.60000000e+01 
732.366  9.10000000e+01 
732.330  8.80000000e+01 
732.295  8.00000000e+01 
732.259  9.60000000e+01 
732.223  8.30000000e+01 
732.187  7.40000000e+01 
732.151  9.60000000e+01 
732.115  1.02000000e+02 
732.079  7.60000000e+01 
732.043  8.00000000e+01 
732.007  8.90000000e+01 
731.971  8.10000000e+01 
731.935  9.30000000e+01 
731.899  1.03000000e+02 
731.863  1.05000000e+02 
731.827  1.10000000e+02 
731.791  9.30000000e+01 
731.755  7.20000000e+01 
731.720  9.00000000e+01 
731.684  9.80000000e+01 
731.648  8.40000000e+01 
731.612  9.70000000e+01 
731.576  8.50000000e+01 
731.540  7.60000000e+01 
731.504  8.70000000e+01 
731.468  1.12000000e+02 
731.432  9.80000000e+01 
731.396  1.04000000e+02 
731.360  7.30000000e+01 
731.324  9.40000000e+01 
731.288  1.11000000e+02 
731.252  8.90000000e+01 
731.216  9.10000000e+01 
731.180  8.40000000e+01 
731.145  9.30000000e+01 
731.109  1.00000000e+02 
731.073  9.80000000e+01 
731.037  1.02000000e+02 
731.001  8.60000000e+01 
730.965  9.30000000e+01 
730.929  9.50000000e+01 
730.893  9.40000000e+01 
730.857  7.40000000e+01 
730.821  1.09000000e+02 
730.785  9.00000000e+01 
730.749  9.40000000e+01 
730.713  8.80000000e+01 
730.677  1.02000000e+02 
730.641  9.50000000e+01 
730.605  1.02000000e+02 
730.570  1.01000000e+02 
730.534  8.60000000e+01 
730.498  9.90000000e+01 
730.462  9.30000000e+01 
730.426  8.90000000e+01 
730.390  7.80000000e+01 
730.354  8.60000000e+01 
730.318  8.10000000e+01 
730.282  1.16000000e+02 
730.246  7.70000000e+01 
730.210  1.08000000e+02 
730.174  9.20000000e+01 
730.138  8.10000000e+01 
730.102  1.00000000e+02 
730.066  7.80000000e+01 
730.030  7.70000000e+01 
729.995  9.20000000e+01 
729.959  1.01000000e+02 
729.923  9.50000000e+01 
729.887  1.05000000e+02 
729.851  8.80000000e+01 
729.815  1.04000000e+02 
729.779  9.60000000e+01 
729.743  1.02000000e+02 
729.707  8.60000000e+01 
729.671  1.06000000e+02 
729.635  9.30000000e+01 
729.599  9.10000000e+01 
729.563  9.30000000e+01 
729.527  9.40000000e+01 
729.491  9.20000000e+01 
729.455  9.80000000e+01 
729.420  8.10000000e+01 
729.384  8.60000000e+01 
729.348  9.50000000e+01 
729.312  1.03000000e+02 
729.276  9.30000000e+01 
729.240  9.60000000e+01 
729.204  8.80000000e+01 
729.168  9.60000000e+01 
729.132  1.04000000e+02 
729.096  9.30000000e+01 
729.060  1.01000000e+02 
729.024  8.40000000e+01 
728.988  1.09000000e+02 
728.952  1.04000000e+02 
728.916  1.04000000e+02 
728.880  9.10000000e+01 
728.845  1.13000000e+02 
728.809  9.00000000e+01 
728.773  9.20000000e+01 
728.737  1.00000000e+02 
728.701  1.03000000e+02 
728.665  1.21000000e+02 
728.629  1.07000000e+02 
728.593  8.70000000e+01 
728.557  1.15000000e+02 
728.521  1.05000000e+02 
728.485  9.60000000e+01 
728.449  1.04000000e+02 
728.413  1.11000000e+02 
728.377  9.30000000e+01 
728.341  1.06000000e+02 
728.305  8.30000000e+01 
728.270  9.20000000e+01 
728.234  9.70000000e+01 
728.198  9.80000000e+01 
728.162  8.40000000e+01 
728.126  9.10000000e+01 
728.090  8.80000000e+01 
728.054  9.50000000e+01 
728.018  1.05000000e+02 
727.982  9.10000000e+01 
727.946  7.90000000e+01 
727.910  8.50000000e+01 
727.874  1.07000000e+02 
727.838  8.40000000e+01 
727.802  8.00000000e+01 
727.766  8.60000000e+01 
727.730  1.04000000e+02 
727.695  9.80000000e+01 
727.659  7.80000000e+01 
727.623  9.60000000e+01 
727.587  8.70000000e+01 
727.551  8.80000000e+01 
727.515  8.90000000e+01 
727.479  9.00000000e+01 
727.443  1.18000000e+02 
727.407  9.80000000e+01 
727.371  8.50000000e+01 
727.335  6.30000000e+01 
727.299  9.40000000e+01 
727.263  9.30000000e+01 
727.227  1.01000000e+02 
727.191  7.80000000e+01 
727.155  9.00000000e+01 
727.120  1.00000000e+02 
727.084  1.05000000e+02 
727.048  1.08000000e+02 
727.012  1.00000000e+02 
726.976  8.90000000e+01 
726.940  7.20000000e+01 
726.904  1.02000000e+02 
726.868  9.90000000e+01 
726.832  8.80000000e+01 
726.796  7.80000000e+01 
726.760  1.02000000e+02 
726.724  9.20000000e+01 
726.688  8.50000000e+01 
726.652  9.90000000e+01 
726.616  1.09000000e+02 
726.580  9.90000000e+01 
726.545  8.90000000e+01 
726.509  9.20000000e+01 
726.473  8.10000000e+01 
726.437  1.05000000e+02 
726.401  8.90000000e+01 
726.365  8.20000000e+01 
726.329  8.80000000e+01 
726.293  9.60000000e+01 
726.257  8.70000000e+01 
726.221  9.90000000e+01 
726.185  1.04000000e+02 
726.149  9.60000000e+01 
726.113  1.00000000e+02 
726.077  7.70000000e+01 
726.041  1.03000000e+02 
726.005  9.50000000e+01 
725.970  8.70000000e+01 
725.934  7.90000000e+01 
725.898  9.40000000e+01 
725.862  8.30000000e+01 
725.826  1.00000000e+02 
725.790  1.06000000e+02 
725.754  9.10000000e+01 
725.718  1.02000000e+02 
725.682  7.90000000e+01 
725.646  9.30000000e+01 
725.610  9.70000000e+01 
725.574  9.50000000e+01 
725.538  1.00000000e+02 
725.502  1.02000000e+02 
725.466  9.90000000e+01 
725.430  8.30000000e+01 
725.395  7.80000000e+01 
725.359  8.10000000e+01 
725.323  9.30000000e+01 
725.287  8.60000000e+01 
725.251  7.60000000e+01 
725.215  9.10000000e+01 
725.179  8.80000000e+01 
725.143  7.40000000e+01 
725.107  9.50000000e+01 
725.071  9.90000000e+01 
725.035  8.50000000e+01 
724.999  7.60000000e+01 
724.963  9.00000000e+01 
724.927  7.30000000e+01 
724.891  9.20000000e+01 
724.855  8.60000000e+01 
724.820  9.40000000e+01 
724.784  8.30000000e+01 
724.748  9.30000000e+01 
724.712  8.00000000e+01 
724.676  8.80000000e+01 
724.640  7.70000000e+01 
724.604  9.10000000e+01 
724.568  8.70000000e+01 
724.532  8.10000000e+01 
724.496  7.20000000e+01 
724.460  9.80000000e+01 
724.424  9.50000000e+01 
724.388  1.05000000e+02 
724.352  8.50000000e+01 
724.316  8.60000000e+01 
724.280  8.20000000e+01 
724.245  1.06000000e+02 
724.209  9.90000000e+01 
724.173  9.60000000e+01 
724.137  8.00000000e+01 
724.101  1.11000000e+02 
724.065  8.30000000e+01 
724.029  1.00000000e+02 
723.993  9.10000000e+01 
723.957  8.60000000e+01 
723.921  8.80000000e+01 
723.885  1.07000000e+02 
723.849  7.70000000e+01 
723.813  1.01000000e+02 
723.777  1.04000000e+02 
723.741  8.30000000e+01 
723.705  8.30000000e+01 
723.670  8.60000000e+01 
723.634  9.20000000e+01 
723.598  9.60000000e+01 
723.562  1.00000000e+02 
723.526  1.04000000e+02 
723.490  9.40000000e+01 
723.454  8.40000000e+01 
723.418  9.50000000e+01 
723.382  1.01000000e+02 
723.346  8.70000000e+01 
723.310  9.60000000e+01 
723.274  9.10000000e+01 
723.238  8.80000000e+01 
723.202  7.90000000e+01 
723.166  9.80000000e+01 
723.130  9.90000000e+01 
723.095  8.50000000e+01 
723.059  1.06000000e+02 
723.023  9.80000000e+01 
722.987  9.40000000e+01 
722.951  9.10000000e+01 
722.915  9.70000000e+01 
722.879  9.90000000e+01 
722.843  9.70000000e+01 
722.807  9.00000000e+01 
722.771  9.90000000e+01 
722.735  9.90000000e+01 
722.699  8.00000000e+01 
722.663  9.40000000e+01 
722.627  1.12000000e+02 
722.591  1.05000000e+02 
722.555  8.90000000e+01 
722.520  8.70000000e+01 
722.484  7.50000000e+01 
722.448  8.20000000e+01 
722.412  8.90000000e+01 
722.376  9.10000000e+01 
722.340  7.70000000e+01 
722.304  8.80000000e+01 
722.268  9.00000000e+01 
722.232  7.30000000e+01 
722.196  7.70000000e+01 
722.160  8.80000000e+01 
722.124  8.00000000e+01 
722.088  8.30000000e+01 
722.052  8.40000000e+01 
722.016  1.02000000e+02 
721.980  8.40000000e+01 
721.945  8.60000000e+01 
721.909  1.01000000e+02 
721.873  8.40000000e+01 
721.837  9.10000000e+01 
721.801  1.03000000e+02 
721.765  9.20000000e+01 
721.729  1.04000000e+02 
721.693  9.90000000e+01 
721.657  9.30000000e+01 
721.621  9.60000000e+01 
721.585  9.00000000e+01 
721.549  6.70000000e+01 
721.513  8.40000000e+01 
721.477  1.00000000e+02 
721.441  7.60000000e+01 
721.405  9.40000000e+01 
721.370  9.50000000e+01 
721.334  9.80000000e+01 
721.298  9.80000000e+01 
721.262  8.60000000e+01 
721.226  8.30000000e+01 
721.190  8.30000000e+01 
721.154  9.10000000e+01 
721.118  8.60000000e+01 
721.082  9.70000000e+01 
721.046  1.05000000e+02 
721.010  9.00000000e+01 
720.974  9.30000000e+01 
720.938  9.50000000e+01 
720.902  8.10000000e+01 
720.866  9.20000000e+01 
720.830  8.70000000e+01 
720.795  8.90000000e+01 
720.759  9.80000000e+01 
720.723  1.00000000e+02 
720.687  8.60000000e+01 
720.651  7.80000000e+01 
720.615  9.90000000e+01 
720.579  8.70000000e+01 
720.543  8.80000000e+01 
720.507  8.90000000e+01 
720.471  8.70000000e+01 
720.435  9.60000000e+01 
720.399  7.70000000e+01 
720.363  1.01000000e+02 
720.327  9.20000000e+01 
720.291  9.50000000e+01 
720.255  8.60000000e+01 
720.220  9.90000000e+01 
720.184  7.60000000e+01 
720.148  9.80000000e+01 
720.112  9.90000000e+01 
720.076  8.50000000e+01 
720.040  7.20000000e+01 
720.004  1.07000000e+02 
719.968  8.90000000e+01 
719.932  8.30000000e+01 
719.896  9.50000000e+01 
719.860  8.50000000e+01 
719.824  9.70000000e+01 
719.788  9.10000000e+01 
719.752  8.60000000e+01 
719.716  1.04000000e+02 
719.680  9.50000000e+01 
719.645  9.10000000e+01 
719.609  8.70000000e+01 
719.573  8.70000000e+01 
719.537  9.50000000e+01 
719.501  1.00000000e+02 
719.465  9.80000000e+01 
719.429  8.50000000e+01 
719.393  8.20000000e+01 
719.357  9.90000000e+01 
719.321  9.00000000e+01 
719.285  9.80000000e+01 
719.249  8.90000000e+01 
719.213  8.50000000e+01 
719.177  8.80000000e+01 
719.141  8.20000000e+01 
719.105  8.30000000e+01 
719.070  8.00000000e+01 
719.034  9.10000000e+01 
718.998  1.05000000e+02 
718.962  1.11000000e+02 
718.926  9.70000000e+01 
718.890  9.20000000e+01 
718.854  9.80000000e+01 
718.818  9.50000000e+01 
718.782  9.00000000e+01 
718.746  8.40000000e+01 
718.710  9.00000000e+01 
718.674  8.10000000e+01 
718.638  8.70000000e+01 
718.602  7.90000000e+01 
718.566  8.60000000e+01 
718.530  1.03000000e+02 
718.495  8.20000000e+01 
718.459  7.40000000e+01 
718.423  1.01000000e+02 
718.387  9.40000000e+01 
718.351  9.70000000e+01 
718.315  1.00000000e+02 
718.279  9.70000000e+01 
718.243  8.90000000e+01 
718.207  9.80000000e+01 
718.171  1.06000000e+02 
718.135  8.00000000e+01 
718.099  9.40000000e+01 
718.063  7.20000000e+01 
718.027  7.90000000e+01 
717.991  9.70000000e+01 
717.955  9.00000000e+01 
717.920  1.01000000e+02 
717.884  1.04000000e+02 
717.848  1.04000000e+02 
717.812  9.60000000e+01 
717.776  9.70000000e+01 
717.740  7.00000000e+01 
717.704  7.80000000e+01 
717.668  1.04000000e+02 
717.632  1.13000000e+02 
717.596  9.00000000e+01 
717.560  9.20000000e+01 
717.524  8.60000000e+01 
717.488  9.60000000e+01 
717.452  1.18000000e+02 
717.416  9.00000000e+01 
717.380  6.40000000e+01 
717.345  1.05000000e+02 
717.309  8.30000000e+01 
717.273  8.80000000e+01 
717.237  8.30000000e+01 
717.201  1.04000000e+02 
717.165  9.60000000e+01 
717.129  9.80000000e+01 
717.093  9.60000000e+01 
717.057  8.00000000e+01 
717.021  9.90000000e+01 
716.985  9.30000000e+01 
716.949  9.80000000e+01 
716.913  9.70000000e+01 
716.877  8.90000000e+01 
716.841  8.60000000e+01 
716.805  7.60000000e+01 
716.770  9.60000000e+01 
716.734  7.70000000e+01 
716.698  7.90000000e+01 
716.662  9.60000000e+01 
716.626  1.16000000e+02 
716.590  8.70000000e+01 
716.554  9.10000000e+01 
716.518  7.80000000e+01 
716.482  1.06000000e+02 
716.446  9.20000000e+01 
716.410  9.90000000e+01 
716.374  9.70000000e+01 
716.338  8.20000000e+01 
716.302  8.90000000e+01 
716.266  8.60000000e+01 
716.230  8.70000000e+01 
716.195  9.60000000e+01 
716.159  9.70000000e+01 
716.123  9.40000000e+01 
716.087  7.80000000e+01 
716.051  9.40000000e+01 
716.015  8.30000000e+01 
715.979  9.30000000e+01 
715.943  9.60000000e+01 
715.907  9.40000000e+01 
715.871  1.01000000e+02 
715.835  1.07000000e+02 
715.799  9.40000000e+01 
715.763  9.60000000e+01 
715.727  1.08000000e+02 
715.691  9.20000000e+01 
715.655  1.01000000e+02 
715.620  1.12000000e+02 
715.584  8.80000000e+01 
715.548  9.30000000e+01 
715.512  8.60000000e+01 
715.476  9.90000000e+01 
715.440  9.50000000e+01 
715.404  8.30000000e+01 
715.368  9.20000000e+01 
715.332  8.30000000e+01 
715.296  9.40000000e+01 
715.260  8.10000000e+01 
715.224  9.90000000e+01 
715.188  8.90000000e+01 
715.152  8.90000000e+01 
715.116  1.04000000e+02 
715.080  1.06000000e+02 
715.045  1.02000000e+02 
715.009  8.80000000e+01 
714.973  9.00000000e+01 
714.937  9.00000000e+01 
714.901  9.10000000e+01 
714.865  8.60000000e+01 
714.829  9.80000000e+01 
714.793  7.80000000e+01 
714.757  8.70000000e+01 
714.721  1.01000000e+02 
714.685  8.60000000e+01 
714.649  8.20000000e+01 
714.613  8.40000000e+01 
714.577  9.40000000e+01 
714.541  9.90000000e+01 
714.505  9.30000000e+01 
714.470  9.70000000e+01 
714.434  1.01000000e+02 
714.398  7.30000000e+01 
714.362  9.20000000e+01 
714.326  7.80000000e+01 
714.290  1.02000000e+02 
714.254  9.70000000e+01 
714.218  9.20000000e+01 
714.182  7.80000000e+01 
714.146  9.30000000e+01 
714.110  9.30000000e+01 
714.074  9.00000000e+01 
714.038  9.30000000e+01 
714.002  7.50000000e+01 
713.966  1.02000000e+02 
713.930  1.04000000e+02 
713.895  8.40000000e+01 
713.859  9.30000000e+01 
713.823  8.80000000e+01 
713.787  9.50000000e+01 
713.751  9.80000000e+01 
713.715  1.10000000e+02 
713.679  1.12000000e+02 
713.643  8.80000000e+01 
713.607  8.30000000e+01 
713.571  8.60000000e+01 
713.535  8.00000000e+01 
713.499  8.60000000e+01 
713.463  7.50000000e+01 
713.427  8.70000000e+01 
713.391  1.01000000e+02 
713.355  7.90000000e+01 
713.320  9.60000000e+01 
713.284  9.20000000e+01 
713.248  7.00000000e+01 
713.212  7.50000000e+01 
713.176  8.10000000e+01 
713.140  9.10000000e+01 
713.104  8.10000000e+01 
713.068  8.30000000e+01 
713.032  9.20000000e+01 
712.996  1.06000000e+02 
712.960  9.40000000e+01 
712.924  7.40000000e+01 
712.888  9.00000000e+01 
712.852  1.00000000e+02 
712.816  7.80000000e+01 
712.780  8.20000000e+01 
712.745  6.80000000e+01 
712.709  8.90000000e+01 
712.673  8.90000000e+01 
712.637  9.20000000e+01 
712.601  7.90000000e+01 
712.565  1.08000000e+02 
712.529  8.10000000e+01 
712.493  8.60000000e+01 
712.457  9.90000000e+01 
712.421  9.90000000e+01 
712.385  9.10000000e+01 
712.349  8.30000000e+01 
712.313  9.40000000e+01 
712.277  8.40000000e+01 
712.241  7.90000000e+01 
712.205  9.60000000e+01 
712.170  9.00000000e+01 
712.134  8.40000000e+01 
712.098  9.70000000e+01 
712.062  1.03000000e+02 
712.026  9.10000000e+01 
711.990  9.80000000e+01 
711.954  8.60000000e+01 
711.918  8.90000000e+01 
711.882  9.50000000e+01 
711.846  9.30000000e+01 
711.810  7.00000000e+01 
711.774  8.90000000e+01 
711.738  8.70000000e+01 
711.702  8.30000000e+01 
711.666  8.20000000e+01 
711.630  8.80000000e+01 
711.595  7.30000000e+01 
711.559  9.30000000e+01 
711.523  9.10000000e+01 
711.487  8.50000000e+01 
711.451  7.70000000e+01 
711.415  1.08000000e+02 
711.379  8.30000000e+01 
711.343  8.60000000e+01 
711.307  9.20000000e+01 
711.271  1.02000000e+02 
711.235  8.70000000e+01 
711.199  9.30000000e+01 
711.163  8.20000000e+01 
711.127  9.40000000e+01 
711.091  7.80000000e+01 
711.055  7.10000000e+01 
711.020  8.90000000e+01 
710.984  1.11000000e+02 
710.948  8.40000000e+01 
710.912  8.90000000e+01 
710.876  9.70000000e+01 
710.840  8.40000000e+01 
710.804  8.80000000e+01 
710.768  7.60000000e+01 
710.732  7.00000000e+01 
710.696  8.80000000e+01 
710.660  6.90000000e+01 
710.624  9.60000000e+01 
710.588  9.60000000e+01 
710.552  1.01000000e+02 
710.516  8.30000000e+01 
710.480  8.40000000e+01 
710.445  8.90000000e+01 
710.409  8.50000000e+01 
710.373  9.30000000e+01 
710.337  7.90000000e+01 
710.301  8.50000000e+01 
710.265  8.30000000e+01 
710.229  8.80000000e+01 
710.193  8.00000000e+01 
710.157  8.80000000e+01 
710.121  6.80000000e+01 
710.085  7.50000000e+01 
710.049  9.70000000e+01 
710.013  8.60000000e+01 

