EXPERIMENT FILE
Version = 2

[ Experiment Parameters ]
Experiment Description= <none> 
Number_of_Regions_in_Experiment= 1 

Original_File_name= c:\alexesca\data\detector\hr0-470m.xps 
Instrument= HP ESCA West
Date= 02-19-2006
Time=  17:28:27

[ Layer Parameters ]
Layer_Type= XPS

[ Region 1 Parameters ]
Region_Description = HR                                 
BEcenter(eV) = 590.000000
BEwidth(eV) = 240.000000
BEstep(eV) = 0.035938
Dwell_Time(sec) = 0.250000
N_o_scans = 1  
N_o_Channels = 6678  
Scan_mode = 0  (DITHERED)

[ L= 1 R= 1 ]
BEcenter= 590.000 
BEwidth= -239.955
Excitation= 1486.600
Time_p_channel= 64.000  
Size= 6678
709.977  8.00000000e+01 
709.941  8.40000000e+01 
709.905  8.50000000e+01 
709.870  8.50000000e+01 
709.834  8.10000000e+01 
709.798  8.90000000e+01 
709.762  8.70000000e+01 
709.726  9.10000000e+01 
709.690  8.70000000e+01 
709.654  8.60000000e+01 
709.618  8.20000000e+01 
709.582  8.10000000e+01 
709.546  8.60000000e+01 
709.510  9.10000000e+01 
709.474  7.60000000e+01 
709.438  9.40000000e+01 
709.402  8.80000000e+01 
709.366  9.40000000e+01 
709.330  6.50000000e+01 
709.295  9.90000000e+01 
709.259  9.40000000e+01 
709.223  7.70000000e+01 
709.187  8.70000000e+01 
709.151  7.80000000e+01 
709.115  8.00000000e+01 
709.079  8.20000000e+01 
709.043  9.10000000e+01 
709.007  8.90000000e+01 
708.971  8.90000000e+01 
708.935  1.02000000e+02 
708.899  6.70000000e+01 
708.863  9.50000000e+01 
708.827  9.30000000e+01 
708.791  9.10000000e+01 
708.755  7.90000000e+01 
708.720  7.60000000e+01 
708.684  9.30000000e+01 
708.648  9.30000000e+01 
708.612  8.30000000e+01 
708.576  9.20000000e+01 
708.540  9.50000000e+01 
708.504  9.70000000e+01 
708.468  7.90000000e+01 
708.432  1.00000000e+02 
708.396  8.20000000e+01 
708.360  8.60000000e+01 
708.324  7.80000000e+01 
708.288  8.00000000e+01 
708.252  8.00000000e+01 
708.216  9.60000000e+01 
708.180  8.70000000e+01 
708.145  7.10000000e+01 
708.109  6.70000000e+01 
708.073  8.90000000e+01 
708.037  8.00000000e+01 
708.001  9.10000000e+01 
707.965  9.30000000e+01 
707.929  9.50000000e+01 
707.893  1.17000000e+02 
707.857  1.02000000e+02 
707.821  8.50000000e+01 
707.785  9.10000000e+01 
707.749  8.80000000e+01 
707.713  9.50000000e+01 
707.677  9.80000000e+01 
707.641  8.20000000e+01 
707.605  9.50000000e+01 
707.570  8.10000000e+01 
707.534  8.00000000e+01 
707.498  6.80000000e+01 
707.462  9.00000000e+01 
707.426  8.50000000e+01 
707.390  9.40000000e+01 
707.354  7.90000000e+01 
707.318  8.10000000e+01 
707.282  9.40000000e+01 
707.246  8.90000000e+01 
707.210  8.10000000e+01 
707.174  9.50000000e+01 
707.138  9.00000000e+01 
707.102  8.60000000e+01 
707.066  6.70000000e+01 
707.030  7.70000000e+01 
706.995  8.70000000e+01 
706.959  9.10000000e+01 
706.923  9.10000000e+01 
706.887  7.90000000e+01 
706.851  7.00000000e+01 
706.815  9.50000000e+01 
706.779  7.40000000e+01 
706.743  9.50000000e+01 
706.707  9.10000000e+01 
706.671  9.00000000e+01 
706.635  8.60000000e+01 
706.599  9.50000000e+01 
706.563  7.60000000e+01 
706.527  8.80000000e+01 
706.491  9.30000000e+01 
706.455  9.20000000e+01 
706.420  9.10000000e+01 
706.384  1.20000000e+02 
706.348  8.40000000e+01 
706.312  8.40000000e+01 
706.276  8.40000000e+01 
706.240  8.90000000e+01 
706.204  8.50000000e+01 
706.168  7.30000000e+01 
706.132  1.00000000e+02 
706.096  8.90000000e+01 
706.060  9.60000000e+01 
706.024  7.80000000e+01 
705.988  8.20000000e+01 
705.952  8.80000000e+01 
705.916  9.70000000e+01 
705.880  1.14000000e+02 
705.845  9.80000000e+01 
705.809  1.08000000e+02 
705.773  9.10000000e+01 
705.737  1.02000000e+02 
705.701  1.00000000e+02 
705.665  9.40000000e+01 
705.629  6.80000000e+01 
705.593  8.90000000e+01 
705.557  9.10000000e+01 
705.521  7.70000000e+01 
705.485  8.40000000e+01 
705.449  7.90000000e+01 
705.413  8.20000000e+01 
705.377  9.10000000e+01 
705.341  9.40000000e+01 
705.305  9.00000000e+01 
705.270  1.11000000e+02 
705.234  7.90000000e+01 
705.198  9.50000000e+01 
705.162  7.60000000e+01 
705.126  7.50000000e+01 
705.090  9.00000000e+01 
705.054  7.60000000e+01 
705.018  8.50000000e+01 
704.982  8.80000000e+01 
704.946  8.30000000e+01 
704.910  8.90000000e+01 
704.874  7.40000000e+01 
704.838  7.10000000e+01 
704.802  9.60000000e+01 
704.766  8.30000000e+01 
704.730  8.60000000e+01 
704.695  1.03000000e+02 
704.659  7.20000000e+01 
704.623  9.40000000e+01 
704.587  8.40000000e+01 
704.551  1.02000000e+02 
704.515  7.00000000e+01 
704.479  8.60000000e+01 
704.443  9.50000000e+01 
704.407  9.20000000e+01 
704.371  1.06000000e+02 
704.335  7.80000000e+01 
704.299  9.10000000e+01 
704.263  8.60000000e+01 
704.227  9.90000000e+01 
704.191  8.60000000e+01 
704.155  9.40000000e+01 
704.120  9.30000000e+01 
704.084  8.10000000e+01 
704.048  7.40000000e+01 
704.012  9.00000000e+01 
703.976  9.00000000e+01 
703.940  7.70000000e+01 
703.904  9.70000000e+01 
703.868  8.00000000e+01 
703.832  8.60000000e+01 
703.796  8.20000000e+01 
703.760  9.30000000e+01 
703.724  9.40000000e+01 
703.688  8.10000000e+01 
703.652  7.10000000e+01 
703.616  1.03000000e+02 
703.580  1.09000000e+02 
703.545  8.40000000e+01 
703.509  8.30000000e+01 
703.473  7.30000000e+01 
703.437  9.50000000e+01 
703.401  7.80000000e+01 
703.365  9.10000000e+01 
703.329  6.40000000e+01 
703.293  9.40000000e+01 
703.257  8.60000000e+01 
703.221  7.30000000e+01 
703.185  8.50000000e+01 
703.149  9.70000000e+01 
703.113  9.60000000e+01 
703.077  9.50000000e+01 
703.041  8.20000000e+01 
703.005  8.80000000e+01 
702.970  8.20000000e+01 
702.934  8.60000000e+01 
702.898  9.30000000e+01 
702.862  9.30000000e+01 
702.826  1.00000000e+02 
702.790  8.50000000e+01 
702.754  1.08000000e+02 
702.718  8.50000000e+01 
702.682  8.00000000e+01 
702.646  8.70000000e+01 
702.610  8.50000000e+01 
702.574  8.50000000e+01 
702.538  6.90000000e+01 
702.502  9.10000000e+01 
702.466  9.20000000e+01 
702.430  8.50000000e+01 
702.395  1.11000000e+02 
702.359  7.80000000e+01 
702.323  8.40000000e+01 
702.287  9.00000000e+01 
702.251  1.11000000e+02 
702.215  8.70000000e+01 
702.179  7.70000000e+01 
702.143  8.40000000e+01 
702.107  8.10000000e+01 
702.071  8.20000000e+01 
702.035  8.50000000e+01 
701.999  7.70000000e+01 
701.963  8.70000000e+01 
701.927  6.60000000e+01 
701.891  9.90000000e+01 
701.855  7.90000000e+01 
701.820  9.50000000e+01 
701.784  9.40000000e+01 
701.748  1.02000000e+02 
701.712  8.80000000e+01 
701.676  9.30000000e+01 
701.640  8.10000000e+01 
701.604  8.90000000e+01 
701.568  8.80000000e+01 
701.532  8.20000000e+01 
701.496  6.40000000e+01 
701.460  1.05000000e+02 
701.424  9.50000000e+01 
701.388  9.10000000e+01 
701.352  8.20000000e+01 
701.316  1.03000000e+02 
701.280  7.80000000e+01 
701.245  8.10000000e+01 
701.209  9.60000000e+01 
701.173  9.20000000e+01 
701.137  8.80000000e+01 
701.101  8.40000000e+01 
701.065  8.50000000e+01 
701.029  8.80000000e+01 
700.993  9.70000000e+01 
700.957  6.70000000e+01 
700.921  8.50000000e+01 
700.885  7.50000000e+01 
700.849  8.00000000e+01 
700.813  9.30000000e+01 
700.777  8.30000000e+01 
700.741  9.40000000e+01 
700.705  1.04000000e+02 
700.670  9.60000000e+01 
700.634  9.00000000e+01 
700.598  8.20000000e+01 
700.562  9.00000000e+01 
700.526  7.80000000e+01 
700.490  8.30000000e+01 
700.454  8.80000000e+01 
700.418  8.40000000e+01 
700.382  7.60000000e+01 
700.346  8.90000000e+01 
700.310  7.80000000e+01 
700.274  7.90000000e+01 
700.238  7.90000000e+01 
700.202  8.20000000e+01 
700.166  7.60000000e+01 
700.130  9.10000000e+01 
700.095  1.04000000e+02 
700.059  1.06000000e+02 
700.023  9.00000000e+01 
699.987  9.30000000e+01 
699.951  8.80000000e+01 
699.915  8.00000000e+01 
699.879  9.40000000e+01 
699.843  7.40000000e+01 
699.807  9.40000000e+01 
699.771  8.30000000e+01 
699.735  8.40000000e+01 
699.699  8.80000000e+01 
699.663  7.40000000e+01 
699.627  8.20000000e+01 
699.591  8.40000000e+01 
699.555  8.80000000e+01 
699.520  7.50000000e+01 
699.484  8.30000000e+01 
699.448  8.30000000e+01 
699.412  8.20000000e+01 
699.376  1.00000000e+02 
699.340  7.30000000e+01 
699.304  7.60000000e+01 
699.268  7.30000000e+01 
699.232  6.20000000e+01 
699.196  6.30000000e+01 
699.160  1.06000000e+02 
699.124  8.90000000e+01 
699.088  8.10000000e+01 
699.052  8.40000000e+01 
699.016  8.50000000e+01 
698.980  9.20000000e+01 
698.945  7.90000000e+01 
698.909  8.10000000e+01 
698.873  8.30000000e+01 
698.837  9.60000000e+01 
698.801  8.10000000e+01 
698.765  9.30000000e+01 
698.729  7.60000000e+01 
698.693  8.40000000e+01 
698.657  9.20000000e+01 
698.621  1.03000000e+02 
698.585  7.40000000e+01 
698.549  8.50000000e+01 
698.513  8.20000000e+01 
698.477  8.50000000e+01 
698.441  8.70000000e+01 
698.405  8.40000000e+01 
698.370  8.30000000e+01 
698.334  8.10000000e+01 
698.298  9.10000000e+01 
698.262  7.60000000e+01 
698.226  7.10000000e+01 
698.190  9.70000000e+01 
698.154  9.10000000e+01 
698.118  8.90000000e+01 
698.082  9.00000000e+01 
698.046  9.10000000e+01 
698.010  9.60000000e+01 
697.974  8.60000000e+01 
697.938  8.70000000e+01 
697.902  7.50000000e+01 
697.866  9.40000000e+01 
697.830  8.50000000e+01 
697.795  6.90000000e+01 
697.759  8.90000000e+01 
697.723  9.80000000e+01 
697.687  1.00000000e+02 
697.651  8.90000000e+01 
697.615  9.30000000e+01 
697.579  1.01000000e+02 
697.543  8.30000000e+01 
697.507  9.20000000e+01 
697.471  8.80000000e+01 
697.435  9.50000000e+01 
697.399  7.40000000e+01 
697.363  8.60000000e+01 
697.327  8.80000000e+01 
697.291  9.20000000e+01 
697.255  9.30000000e+01 
697.220  8.10000000e+01 
697.184  7.50000000e+01 
697.148  8.60000000e+01 
697.112  9.30000000e+01 
697.076  1.00000000e+02 
697.040  1.08000000e+02 
697.004  8.30000000e+01 
696.968  9.70000000e+01 
696.932  9.10000000e+01 
696.896  8.30000000e+01 
696.860  9.50000000e+01 
696.824  1.09000000e+02 
696.788  8.40000000e+01 
696.752  8.20000000e+01 
696.716  8.80000000e+01 
696.680  9.10000000e+01 
696.645  1.01000000e+02 
696.609  9.10000000e+01 
696.573  9.50000000e+01 
696.537  9.10000000e+01 
696.501  9.00000000e+01 
696.465  8.40000000e+01 
696.429  1.08000000e+02 
696.393  9.20000000e+01 
696.357  7.60000000e+01 
696.321  9.10000000e+01 
696.285  9.00000000e+01 
696.249  8.90000000e+01 
696.213  8.60000000e+01 
696.177  8.30000000e+01 
696.141  8.30000000e+01 
696.105  9.10000000e+01 
696.070  8.00000000e+01 
696.034  1.11000000e+02 
695.998  8.70000000e+01 
695.962  1.01000000e+02 
695.926  1.06000000e+02 
695.890  8.90000000e+01 
695.854  8.00000000e+01 
695.818  8.70000000e+01 
695.782  9.50000000e+01 
695.746  7.50000000e+01 
695.710  1.00000000e+02 
695.674  7.30000000e+01 
695.638  9.40000000e+01 
695.602  9.40000000e+01 
695.566  7.40000000e+01 
695.530  9.60000000e+01 
695.495  8.50000000e+01 
695.459  8.10000000e+01 
695.423  8.30000000e+01 
695.387  7.50000000e+01 
695.351  8.90000000e+01 
695.315  9.40000000e+01 
695.279  8.50000000e+01 
695.243  7.70000000e+01 
695.207  8.10000000e+01 
695.171  1.04000000e+02 
695.135  9.60000000e+01 
695.099  9.70000000e+01 
695.063  7.90000000e+01 
695.027  8.00000000e+01 
694.991  7.30000000e+01 
694.955  9.90000000e+01 
694.920  8.80000000e+01 
694.884  9.00000000e+01 
694.848  1.04000000e+02 
694.812  7.80000000e+01 
694.776  8.50000000e+01 
694.740  8.30000000e+01 
694.704  1.02000000e+02 
694.668  1.00000000e+02 
694.632  8.10000000e+01 
694.596  9.90000000e+01 
694.560  9.90000000e+01 
694.524  8.40000000e+01 
694.488  9.10000000e+01 
694.452  7.70000000e+01 
694.416  1.10000000e+02 
694.380  7.70000000e+01 
694.345  9.30000000e+01 
694.309  8.60000000e+01 
694.273  1.01000000e+02 
694.237  9.70000000e+01 
694.201  7.70000000e+01 
694.165  1.09000000e+02 
694.129  7.80000000e+01 
694.093  8.90000000e+01 
694.057  1.05000000e+02 
694.021  1.00000000e+02 
693.985  1.12000000e+02 
693.949  9.00000000e+01 
693.913  7.50000000e+01 
693.877  8.30000000e+01 
693.841  8.30000000e+01 
693.805  8.00000000e+01 
693.770  8.80000000e+01 
693.734  9.20000000e+01 
693.698  1.06000000e+02 
693.662  9.60000000e+01 
693.626  8.00000000e+01 
693.590  1.11000000e+02 
693.554  6.90000000e+01 
693.518  1.00000000e+02 
693.482  9.70000000e+01 
693.446  1.10000000e+02 
693.410  9.70000000e+01 
693.374  7.50000000e+01 
693.338  8.70000000e+01 
693.302  9.20000000e+01 
693.266  9.40000000e+01 
693.230  9.90000000e+01 
693.195  1.00000000e+02 
693.159  9.80000000e+01 
693.123  9.90000000e+01 
693.087  8.70000000e+01 
693.051  9.00000000e+01 
693.015  8.80000000e+01 
692.979  8.10000000e+01 
692.943  8.10000000e+01 
692.907  9.90000000e+01 
692.871  9.90000000e+01 
692.835  8.90000000e+01 
692.799  1.06000000e+02 
692.763  9.40000000e+01 
692.727  9.10000000e+01 
692.691  9.50000000e+01 
692.655  8.60000000e+01 
692.620  8.20000000e+01 
692.584  8.40000000e+01 
692.548  8.30000000e+01 
692.512  9.60000000e+01 
692.476  1.01000000e+02 
692.440  9.20000000e+01 
692.404  7.10000000e+01 
692.368  1.13000000e+02 
692.332  9.70000000e+01 
692.296  8.90000000e+01 
692.260  9.90000000e+01 
692.224  1.00000000e+02 
692.188  9.60000000e+01 
692.152  9.60000000e+01 
692.116  9.30000000e+01 
692.080  8.70000000e+01 
692.045  8.90000000e+01 
692.009  7.10000000e+01 
691.973  9.00000000e+01 
691.937  9.10000000e+01 
691.901  1.04000000e+02 
691.865  9.40000000e+01 
691.829  9.80000000e+01 
691.793  8.10000000e+01 
691.757  8.40000000e+01 
691.721  8.90000000e+01 
691.685  9.50000000e+01 
691.649  7.70000000e+01 
691.613  8.00000000e+01 
691.577  8.80000000e+01 
691.541  1.02000000e+02 
691.505  9.00000000e+01 
691.470  7.90000000e+01 
691.434  1.00000000e+02 
691.398  9.60000000e+01 
691.362  9.50000000e+01 
691.326  6.70000000e+01 
691.290  1.07000000e+02 
691.254  1.00000000e+02 
691.218  8.20000000e+01 
691.182  7.90000000e+01 
691.146  1.04000000e+02 
691.110  1.13000000e+02 
691.074  9.00000000e+01 
691.038  7.80000000e+01 
691.002  7.80000000e+01 
690.966  8.00000000e+01 
690.930  1.14000000e+02 
690.895  1.00000000e+02 
690.859  7.80000000e+01 
690.823  1.01000000e+02 
690.787  7.70000000e+01 
690.751  9.50000000e+01 
690.715  7.90000000e+01 
690.679  9.90000000e+01 
690.643  1.05000000e+02 
690.607  9.80000000e+01 
690.571  7.70000000e+01 
690.535  7.40000000e+01 
690.499  7.40000000e+01 
690.463  8.50000000e+01 
690.427  9.50000000e+01 
690.391  8.10000000e+01 
690.355  9.50000000e+01 
690.320  8.20000000e+01 
690.284  9.70000000e+01 
690.248  9.00000000e+01 
690.212  9.00000000e+01 
690.176  9.00000000e+01 
690.140  9.60000000e+01 
690.104  9.10000000e+01 
690.068  9.40000000e+01 
690.032  9.60000000e+01 
689.996  8.60000000e+01 
689.960  8.40000000e+01 
689.924  7.90000000e+01 
689.888  1.16000000e+02 
689.852  1.02000000e+02 
689.816  9.00000000e+01 
689.780  9.50000000e+01 
689.745  9.60000000e+01 
689.709  9.10000000e+01 
689.673  9.40000000e+01 
689.637  9.90000000e+01 
689.601  9.20000000e+01 
689.565  9.80000000e+01 
689.529  9.00000000e+01 
689.493  9.70000000e+01 
689.457  9.60000000e+01 
689.421  8.30000000e+01 
689.385  9.20000000e+01 
689.349  9.60000000e+01 
689.313  8.80000000e+01 
689.277  6.60000000e+01 
689.241  7.70000000e+01 
689.205  8.40000000e+01 
689.170  9.30000000e+01 
689.134  9.40000000e+01 
689.098  8.30000000e+01 
689.062  9.30000000e+01 
689.026  6.70000000e+01 
688.990  7.90000000e+01 
688.954  9.30000000e+01 
688.918  9.40000000e+01 
688.882  8.50000000e+01 
688.846  8.30000000e+01 
688.810  8.70000000e+01 
688.774  9.30000000e+01 
688.738  8.80000000e+01 
688.702  9.30000000e+01 
688.666  9.30000000e+01 
688.630  8.90000000e+01 
688.595  8.70000000e+01 
688.559  6.50000000e+01 
688.523  8.50000000e+01 
688.487  9.90000000e+01 
688.451  1.00000000e+02 
688.415  9.60000000e+01 
688.379  8.00000000e+01 
688.343  9.20000000e+01 
688.307  8.20000000e+01 
688.271  9.70000000e+01 
688.235  9.60000000e+01 
688.199  8.80000000e+01 
688.163  7.90000000e+01 
688.127  8.90000000e+01 
688.091  8.00000000e+01 
688.055  1.05000000e+02 
688.020  8.50000000e+01 
687.984  1.04000000e+02 
687.948  1.04000000e+02 
687.912  8.80000000e+01 
687.876  9.70000000e+01 
687.840  9.70000000e+01 
687.804  9.60000000e+01 
687.768  8.90000000e+01 
687.732  9.60000000e+01 
687.696  8.60000000e+01 
687.660  9.30000000e+01 
687.624  9.80000000e+01 
687.588  8.60000000e+01 
687.552  9.40000000e+01 
687.516  1.01000000e+02 
687.480  8.20000000e+01 
687.445  9.90000000e+01 
687.409  8.30000000e+01 
687.373  8.40000000e+01 
687.337  7.50000000e+01 
687.301  8.30000000e+01 
687.265  8.70000000e+01 
687.229  9.20000000e+01 
687.193  7.50000000e+01 
687.157  9.50000000e+01 
687.121  8.80000000e+01 
687.085  1.08000000e+02 
687.049  8.80000000e+01 
687.013  9.60000000e+01 
686.977  8.10000000e+01 
686.941  9.10000000e+01 
686.905  8.30000000e+01 
686.870  7.60000000e+01 
686.834  9.00000000e+01 
686.798  9.20000000e+01 
686.762  9.40000000e+01 
686.726  9.50000000e+01 
686.690  8.50000000e+01 
686.654  9.70000000e+01 
686.618  9.40000000e+01 
686.582  8.60000000e+01 
686.546  9.70000000e+01 
686.510  8.50000000e+01 
686.474  7.20000000e+01 
686.438  8.90000000e+01 
686.402  8.20000000e+01 
686.366  9.30000000e+01 
686.330  8.70000000e+01 
686.295  9.60000000e+01 
686.259  8.20000000e+01 
686.223  8.70000000e+01 
686.187  9.20000000e+01 
686.151  7.70000000e+01 
686.115  8.40000000e+01 
686.079  7.80000000e+01 
686.043  8.00000000e+01 
686.007  1.03000000e+02 
685.971  9.20000000e+01 
685.935  8.20000000e+01 
685.899  8.80000000e+01 
685.863  7.50000000e+01 
685.827  9.70000000e+01 
685.791  8.80000000e+01 
685.755  8.10000000e+01 
685.720  1.00000000e+02 
685.684  7.70000000e+01 
685.648  8.50000000e+01 
685.612  6.50000000e+01 
685.576  6.80000000e+01 
685.540  8.50000000e+01 
685.504  7.90000000e+01 
685.468  6.10000000e+01 
685.432  8.80000000e+01 
685.396  7.20000000e+01 
685.360  9.90000000e+01 
685.324  9.00000000e+01 
685.288  8.60000000e+01 
685.252  9.20000000e+01 
685.216  9.40000000e+01 
685.180  9.50000000e+01 
685.145  7.90000000e+01 
685.109  9.30000000e+01 
685.073  8.20000000e+01 
685.037  9.20000000e+01 
685.001  9.20000000e+01 
684.965  8.00000000e+01 
684.929  8.30000000e+01 
684.893  8.00000000e+01 
684.857  9.30000000e+01 
684.821  9.20000000e+01 
684.785  8.50000000e+01 
684.749  8.60000000e+01 
684.713  8.00000000e+01 
684.677  8.40000000e+01 
684.641  9.50000000e+01 
684.605  7.80000000e+01 
684.570  1.20000000e+02 
684.534  9.50000000e+01 
684.498  8.80000000e+01 
684.462  9.90000000e+01 
684.426  7.80000000e+01 
684.390  8.10000000e+01 
684.354  8.70000000e+01 
684.318  9.90000000e+01 
684.282  9.30000000e+01 
684.246  9.70000000e+01 
684.210  8.80000000e+01 
684.174  9.30000000e+01 
684.138  8.50000000e+01 
684.102  1.06000000e+02 
684.066  1.01000000e+02 
684.030  8.00000000e+01 
683.995  9.10000000e+01 
683.959  7.60000000e+01 
683.923  8.20000000e+01 
683.887  8.10000000e+01 
683.851  8.80000000e+01 
683.815  9.10000000e+01 
683.779  7.90000000e+01 
683.743  9.10000000e+01 
683.707  9.60000000e+01 
683.671  7.90000000e+01 
683.635  8.20000000e+01 
683.599  8.80000000e+01 
683.563  9.40000000e+01 
683.527  7.90000000e+01 
683.491  1.11000000e+02 
683.455  1.02000000e+02 
683.420  1.05000000e+02 
683.384  8.60000000e+01 
683.348  9.50000000e+01 
683.312  1.02000000e+02 
683.276  9.90000000e+01 
683.240  8.90000000e+01 
683.204  8.90000000e+01 
683.168  9.50000000e+01 
683.132  9.30000000e+01 
683.096  8.50000000e+01 
683.060  9.10000000e+01 
683.024  7.90000000e+01 
682.988  1.00000000e+02 
682.952  9.70000000e+01 
682.916  8.40000000e+01 
682.880  8.60000000e+01 
682.845  8.50000000e+01 
682.809  9.50000000e+01 
682.773  1.03000000e+02 
682.737  7.70000000e+01 
682.701  9.20000000e+01 
682.665  7.50000000e+01 
682.629  8.90000000e+01 
682.593  9.10000000e+01 
682.557  5.80000000e+01 
682.521  7.50000000e+01 
682.485  8.90000000e+01 
682.449  7.60000000e+01 
682.413  7.00000000e+01 
682.377  8.40000000e+01 
682.341  9.30000000e+01 
682.305  9.70000000e+01 
682.270  8.70000000e+01 
682.234  7.90000000e+01 
682.198  1.11000000e+02 
682.162  7.00000000e+01 
682.126  7.80000000e+01 
682.090  7.90000000e+01 
682.054  7.30000000e+01 
682.018  8.60000000e+01 
681.982  9.00000000e+01 
681.946  7.90000000e+01 
681.910  9.60000000e+01 
681.874  6.90000000e+01 
681.838  8.60000000e+01 
681.802  6.90000000e+01 
681.766  7.70000000e+01 
681.730  9.40000000e+01 
681.695  9.40000000e+01 
681.659  8.70000000e+01 
681.623  9.10000000e+01 
681.587  8.60000000e+01 
681.551  8.50000000e+01 
681.515  8.60000000e+01 
681.479  8.20000000e+01 
681.443  9.50000000e+01 
681.407  7.70000000e+01 
681.371  7.70000000e+01 
681.335  9.40000000e+01 
681.299  6.70000000e+01 
681.263  7.00000000e+01 
681.227  9.90000000e+01 
681.191  1.03000000e+02 
681.155  9.60000000e+01 
681.120  7.70000000e+01 
681.084  8.40000000e+01 
681.048  7.90000000e+01 
681.012  8.80000000e+01 
680.976  1.06000000e+02 
680.940  8.70000000e+01 
680.904  1.00000000e+02 
680.868  9.90000000e+01 
680.832  9.30000000e+01 
680.796  9.60000000e+01 
680.760  9.10000000e+01 
680.724  8.30000000e+01 
680.688  9.40000000e+01 
680.652  1.05000000e+02 
680.616  8.90000000e+01 
680.580  7.60000000e+01 
680.545  8.00000000e+01 
680.509  7.50000000e+01 
680.473  9.60000000e+01 
680.437  9.50000000e+01 
680.401  9.20000000e+01 
680.365  9.40000000e+01 
680.329  9.00000000e+01 
680.293  7.80000000e+01 
680.257  9.20000000e+01 
680.221  8.20000000e+01 
680.185  1.23000000e+02 
680.149  7.30000000e+01 
680.113  9.80000000e+01 
680.077  8.40000000e+01 
680.041  9.20000000e+01 
680.005  9.90000000e+01 
679.970  8.30000000e+01 
679.934  7.50000000e+01 
679.898  7.20000000e+01 
679.862  8.00000000e+01 
679.826  8.50000000e+01 
679.790  9.90000000e+01 
679.754  9.10000000e+01 
679.718  9.10000000e+01 
679.682  7.80000000e+01 
679.646  9.20000000e+01 
679.610  9.40000000e+01 
679.574  6.60000000e+01 
679.538  8.00000000e+01 
679.502  9.50000000e+01 
679.466  7.80000000e+01 
679.430  9.00000000e+01 
679.395  8.40000000e+01 
679.359  1.03000000e+02 
679.323  1.06000000e+02 
679.287  9.20000000e+01 
679.251  9.20000000e+01 
679.215  7.70000000e+01 
679.179  9.00000000e+01 
679.143  9.90000000e+01 
679.107  7.10000000e+01 
679.071  7.90000000e+01 
679.035  9.20000000e+01 
678.999  7.70000000e+01 
678.963  1.06000000e+02 
678.927  7.80000000e+01 
678.891  8.60000000e+01 
678.855  8.60000000e+01 
678.820  8.90000000e+01 
678.784  9.80000000e+01 
678.748  9.60000000e+01 
678.712  9.10000000e+01 
678.676  8.30000000e+01 
678.640  8.90000000e+01 
678.604  7.50000000e+01 
678.568  8.90000000e+01 
678.532  7.80000000e+01 
678.496  7.10000000e+01 
678.460  8.80000000e+01 
678.424  8.00000000e+01 
678.388  9.10000000e+01 
678.352  6.90000000e+01 
678.316  1.04000000e+02 
678.280  8.20000000e+01 
678.245  9.80000000e+01 
678.209  8.60000000e+01 
678.173  8.40000000e+01 
678.137  9.40000000e+01 
678.101  9.50000000e+01 
678.065  1.02000000e+02 
678.029  8.90000000e+01 
677.993  7.70000000e+01 
677.957  9.80000000e+01 
677.921  8.00000000e+01 
677.885  8.80000000e+01 
677.849  7.70000000e+01 
677.813  9.10000000e+01 
677.777  7.90000000e+01 
677.741  8.50000000e+01 
677.705  9.50000000e+01 
677.670  8.90000000e+01 
677.634  8.40000000e+01 
677.598  8.10000000e+01 
677.562  8.90000000e+01 
677.526  1.04000000e+02 
677.490  9.40000000e+01 
677.454  6.50000000e+01 
677.418  8.50000000e+01 
677.382  9.60000000e+01 
677.346  9.20000000e+01 
677.310  8.50000000e+01 
677.274  9.30000000e+01 
677.238  7.20000000e+01 
677.202  9.30000000e+01 
677.166  9.40000000e+01 
677.130  9.50000000e+01 
677.095  8.10000000e+01 
677.059  8.20000000e+01 
677.023  9.00000000e+01 
676.987  7.70000000e+01 
676.951  7.90000000e+01 
676.915  9.20000000e+01 
676.879  8.10000000e+01 
676.843  9.60000000e+01 
676.807  8.30000000e+01 
676.771  9.10000000e+01 
676.735  8.30000000e+01 
676.699  1.08000000e+02 
676.663  9.70000000e+01 
676.627  9.50000000e+01 
676.591  9.50000000e+01 
676.555  1.05000000e+02 
676.520  8.60000000e+01 
676.484  8.40000000e+01 
676.448  8.20000000e+01 
676.412  8.10000000e+01 
676.376  9.40000000e+01 
676.340  8.70000000e+01 
676.304  7.70000000e+01 
676.268  8.70000000e+01 
676.232  8.00000000e+01 
676.196  8.40000000e+01 
676.160  8.30000000e+01 
676.124  1.09000000e+02 
676.088  8.30000000e+01 
676.052  9.90000000e+01 
676.016  8.60000000e+01 
675.980  8.90000000e+01 
675.945  1.06000000e+02 
675.909  8.70000000e+01 
675.873  9.80000000e+01 
675.837  9.50000000e+01 
675.801  9.40000000e+01 
675.765  8.30000000e+01 
675.729  1.14000000e+02 
675.693  8.00000000e+01 
675.657  8.80000000e+01 
675.621  8.30000000e+01 
675.585  1.02000000e+02 
675.549  9.30000000e+01 
675.513  8.30000000e+01 
675.477  9.30000000e+01 
675.441  9.20000000e+01 
675.405  6.80000000e+01 
675.370  7.40000000e+01 
675.334  8.80000000e+01 
675.298  9.30000000e+01 
675.262  9.80000000e+01 
675.226  1.01000000e+02 
675.190  1.06000000e+02 
675.154  7.40000000e+01 
675.118  7.50000000e+01 
675.082  9.60000000e+01 
675.046  7.10000000e+01 
675.010  8.30000000e+01 
674.974  1.04000000e+02 
674.938  6.70000000e+01 
674.902  9.20000000e+01 
674.866  7.90000000e+01 
674.830  8.40000000e+01 
674.795  1.00000000e+02 
674.759  6.60000000e+01 
674.723  8.80000000e+01 
674.687  9.70000000e+01 
674.651  9.20000000e+01 
674.615  8.30000000e+01 
674.579  9.90000000e+01 
674.543  8.60000000e+01 
674.507  9.80000000e+01 
674.471  8.00000000e+01 
674.435  9.00000000e+01 
674.399  1.02000000e+02 
674.363  9.20000000e+01 
674.327  9.30000000e+01 
674.291  9.50000000e+01 
674.255  1.02000000e+02 
674.220  7.90000000e+01 
674.184  9.30000000e+01 
674.148  8.80000000e+01 
674.112  8.00000000e+01 
674.076  8.10000000e+01 
674.040  9.20000000e+01 
674.004  9.70000000e+01 
673.968  9.40000000e+01 
673.932  7.10000000e+01 
673.896  1.01000000e+02 
673.860  7.80000000e+01 
673.824  1.00000000e+02 
673.788  9.20000000e+01 
673.752  9.90000000e+01 
673.716  8.70000000e+01 
673.680  8.00000000e+01 
673.645  7.50000000e+01 
673.609  8.50000000e+01 
673.573  8.80000000e+01 
673.537  8.30000000e+01 
673.501  9.60000000e+01 
673.465  9.70000000e+01 
673.429  9.60000000e+01 
673.393  9.60000000e+01 
673.357  8.30000000e+01 
673.321  9.00000000e+01 
673.285  8.00000000e+01 
673.249  7.30000000e+01 
673.213  8.70000000e+01 
673.177  7.60000000e+01 
673.141  8.80000000e+01 
673.105  8.80000000e+01 
673.070  8.80000000e+01 
673.034  7.40000000e+01 
672.998  9.20000000e+01 
672.962  1.08000000e+02 
672.926  9.10000000e+01 
672.890  9.40000000e+01 
672.854  1.09000000e+02 
672.818  7.80000000e+01 
672.782  9.30000000e+01 
672.746  1.03000000e+02 
672.710  9.40000000e+01 
672.674  8.40000000e+01 
672.638  7.40000000e+01 
672.602  8.60000000e+01 
672.566  8.20000000e+01 
672.530  8.70000000e+01 
672.495  8.20000000e+01 
672.459  8.20000000e+01 
672.423  8.30000000e+01 
672.387  9.80000000e+01 
672.351  8.70000000e+01 
672.315  1.02000000e+02 
672.279  9.50000000e+01 
672.243  9.10000000e+01 
672.207  9.30000000e+01 
672.171  8.50000000e+01 
672.135  8.60000000e+01 
672.099  9.10000000e+01 
672.063  8.20000000e+01 
672.027  9.50000000e+01 
671.991  7.90000000e+01 
671.955  9.70000000e+01 
671.920  9.20000000e+01 
671.884  7.00000000e+01 
671.848  7.40000000e+01 
671.812  8.30000000e+01 
671.776  9.60000000e+01 
671.740  1.15000000e+02 
671.704  8.10000000e+01 
671.668  8.60000000e+01 
671.632  8.20000000e+01 
671.596  8.50000000e+01 
671.560  8.80000000e+01 
671.524  8.80000000e+01 
671.488  7.00000000e+01 
671.452  9.50000000e+01 
671.416  1.02000000e+02 
671.380  9.50000000e+01 
671.345  8.30000000e+01 
671.309  9.00000000e+01 
671.273  7.50000000e+01 
671.237  9.50000000e+01 
671.201  7.00000000e+01 
671.165  9.20000000e+01 
671.129  9.10000000e+01 
671.093  9.20000000e+01 
671.057  7.50000000e+01 
671.021  9.10000000e+01 
670.985  9.60000000e+01 
670.949  1.02000000e+02 
670.913  1.01000000e+02 
670.877  9.80000000e+01 
670.841  9.10000000e+01 
670.805  8.30000000e+01 
670.770  8.40000000e+01 
670.734  9.10000000e+01 
670.698  7.90000000e+01 
670.662  9.50000000e+01 
670.626  8.30000000e+01 
670.590  9.60000000e+01 
670.554  1.09000000e+02 
670.518  1.03000000e+02 
670.482  9.90000000e+01 
670.446  8.00000000e+01 
670.410  9.10000000e+01 
670.374  9.90000000e+01 
670.338  8.70000000e+01 
670.302  9.30000000e+01 
670.266  9.20000000e+01 
670.230  9.90000000e+01 
670.195  8.60000000e+01 
670.159  9.40000000e+01 
670.123  7.30000000e+01 
670.087  9.10000000e+01 
670.051  9.70000000e+01 
670.015  9.10000000e+01 
669.979  8.90000000e+01 
669.943  9.30000000e+01 
669.907  8.70000000e+01 
669.871  1.00000000e+02 
669.835  8.50000000e+01 
669.799  1.01000000e+02 
669.763  1.00000000e+02 
669.727  8.50000000e+01 
669.691  8.50000000e+01 
669.655  9.30000000e+01 
669.620  9.40000000e+01 
669.584  7.30000000e+01 
669.548  8.10000000e+01 
669.512  9.80000000e+01 
669.476  9.90000000e+01 
669.440  7.20000000e+01 
669.404  1.05000000e+02 
669.368  9.30000000e+01 
669.332  8.30000000e+01 
669.296  8.50000000e+01 
669.260  8.80000000e+01 
669.224  9.20000000e+01 
669.188  9.70000000e+01 
669.152  8.00000000e+01 
669.116  6.60000000e+01 
669.080  9.20000000e+01 
669.045  9.50000000e+01 
669.009  8.10000000e+01 
668.973  8.90000000e+01 
668.937  8.40000000e+01 
668.901  7.50000000e+01 
668.865  7.00000000e+01 
668.829  8.80000000e+01 
668.793  8.50000000e+01 
668.757  8.60000000e+01 
668.721  8.50000000e+01 
668.685  8.70000000e+01 
668.649  9.10000000e+01 
668.613  9.50000000e+01 
668.577  9.80000000e+01 
668.541  7.80000000e+01 
668.505  9.50000000e+01 
668.470  7.50000000e+01 
668.434  1.01000000e+02 
668.398  9.70000000e+01 
668.362  7.50000000e+01 
668.326  9.60000000e+01 
668.290  9.90000000e+01 
668.254  9.60000000e+01 
668.218  8.70000000e+01 
668.182  8.30000000e+01 
668.146  8.50000000e+01 
668.110  8.90000000e+01 
668.074  8.20000000e+01 
668.038  9.60000000e+01 
668.002  8.30000000e+01 
667.966  9.00000000e+01 
667.930  7.80000000e+01 
667.895  9.50000000e+01 
667.859  1.04000000e+02 
667.823  1.19000000e+02 
667.787  9.50000000e+01 
667.751  8.80000000e+01 
667.715  9.10000000e+01 
667.679  1.03000000e+02 
667.643  1.01000000e+02 
667.607  9.50000000e+01 
667.571  9.60000000e+01 
667.535  7.80000000e+01 
667.499  9.00000000e+01 
667.463  8.40000000e+01 
667.427  8.50000000e+01 
667.391  9.30000000e+01 
667.355  1.04000000e+02 
667.320  7.90000000e+01 
667.284  7.70000000e+01 
667.248  8.10000000e+01 
667.212  9.70000000e+01 
667.176  8.10000000e+01 
667.140  8.40000000e+01 
667.104  9.00000000e+01 
667.068  8.60000000e+01 
667.032  9.60000000e+01 
666.996  7.80000000e+01 
666.960  8.80000000e+01 
666.924  8.80000000e+01 
666.888  8.60000000e+01 
666.852  9.60000000e+01 
666.816  8.30000000e+01 
666.780  9.30000000e+01 
666.745  8.80000000e+01 
666.709  1.00000000e+02 
666.673  8.10000000e+01 
666.637  9.80000000e+01 
666.601  8.60000000e+01 
666.565  6.90000000e+01 
666.529  8.70000000e+01 
666.493  7.60000000e+01 
666.457  9.90000000e+01 
666.421  9.40000000e+01 
666.385  1.03000000e+02 
666.349  8.30000000e+01 
666.313  8.70000000e+01 
666.277  8.40000000e+01 
666.241  1.05000000e+02 
666.205  1.02000000e+02 
666.170  9.80000000e+01 
666.134  7.50000000e+01 
666.098  1.16000000e+02 
666.062  8.20000000e+01 
666.026  8.80000000e+01 
665.990  8.60000000e+01 
665.954  1.04000000e+02 
665.918  9.30000000e+01 
665.882  8.30000000e+01 
665.846  7.90000000e+01 
665.810  8.80000000e+01 
665.774  8.90000000e+01 
665.738  8.90000000e+01 
665.702  7.20000000e+01 
665.666  7.40000000e+01 
665.630  9.10000000e+01 
665.595  8.50000000e+01 
665.559  7.40000000e+01 
665.523  9.40000000e+01 
665.487  8.90000000e+01 
665.451  8.80000000e+01 
665.415  7.80000000e+01 
665.379  7.50000000e+01 
665.343  9.70000000e+01 
665.307  1.00000000e+02 
665.271  1.00000000e+02 
665.235  8.30000000e+01 
665.199  9.10000000e+01 
665.163  8.90000000e+01 
665.127  9.30000000e+01 
665.091  9.80000000e+01 
665.055  9.20000000e+01 
665.020  1.00000000e+02 
664.984  1.01000000e+02 
664.948  1.13000000e+02 
664.912  9.10000000e+01 
664.876  9.50000000e+01 
664.840  7.80000000e+01 
664.804  8.80000000e+01 
664.768  9.70000000e+01 
664.732  8.30000000e+01 
664.696  9.10000000e+01 
664.660  9.70000000e+01 
664.624  8.60000000e+01 
664.588  7.70000000e+01 
664.552  7.90000000e+01 
664.516  8.20000000e+01 
664.480  9.70000000e+01 
664.445  9.50000000e+01 
664.409  9.70000000e+01 
664.373  7.40000000e+01 
664.337  7.70000000e+01 
664.301  8.40000000e+01 
664.265  8.20000000e+01 
664.229  9.70000000e+01 
664.193  8.60000000e+01 
664.157  9.00000000e+01 
664.121  1.02000000e+02 
664.085  8.80000000e+01 
664.049  9.30000000e+01 
664.013  9.90000000e+01 
663.977  1.05000000e+02 
663.941  9.40000000e+01 
663.905  1.00000000e+02 
663.870  9.20000000e+01 
663.834  8.20000000e+01 
663.798  8.20000000e+01 
663.762  7.20000000e+01 
663.726  9.50000000e+01 
663.690  7.70000000e+01 
663.654  9.40000000e+01 
663.618  6.90000000e+01 
663.582  9.70000000e+01 
663.546  9.50000000e+01 
663.510  8.30000000e+01 
663.474  8.50000000e+01 
663.438  7.70000000e+01 
663.402  8.90000000e+01 
663.366  8.10000000e+01 
663.330  9.70000000e+01 
663.295  8.10000000e+01 
663.259  7.50000000e+01 
663.223  1.05000000e+02 
663.187  1.00000000e+02 
663.151  8.50000000e+01 
663.115  9.30000000e+01 
663.079  8.40000000e+01 
663.043  8.50000000e+01 
663.007  8.30000000e+01 
662.971  7.70000000e+01 
662.935  8.90000000e+01 
662.899  8.70000000e+01 
662.863  8.10000000e+01 
662.827  8.90000000e+01 
662.791  9.90000000e+01 
662.755  9.30000000e+01 
662.720  9.00000000e+01 
662.684  8.40000000e+01 
662.648  8.00000000e+01 
662.612  8.00000000e+01 
662.576  8.50000000e+01 
662.540  8.00000000e+01 
662.504  8.40000000e+01 
662.468  9.50000000e+01 
662.432  1.02000000e+02 
662.396  1.10000000e+02 
662.360  8.50000000e+01 
662.324  7.70000000e+01 
662.288  1.00000000e+02 
662.252  9.10000000e+01 
662.216  1.03000000e+02 
662.180  9.50000000e+01 
662.145  8.50000000e+01 
662.109  7.40000000e+01 
662.073  9.80000000e+01 
662.037  8.70000000e+01 
662.001  9.40000000e+01 
661.965  9.40000000e+01 
661.929  1.01000000e+02 
661.893  8.40000000e+01 
661.857  9.30000000e+01 
661.821  8.20000000e+01 
661.785  8.00000000e+01 
661.749  8.60000000e+01 
661.713  1.00000000e+02 
661.677  9.50000000e+01 
661.641  1.03000000e+02 
661.605  7.90000000e+01 
661.570  1.04000000e+02 
661.534  9.50000000e+01 
661.498  9.30000000e+01 
661.462  1.04000000e+02 
661.426  9.50000000e+01 
661.390  8.60000000e+01 
661.354  8.40000000e+01 
661.318  9.90000000e+01 
661.282  7.50000000e+01 
661.246  7.40000000e+01 
661.210  8.20000000e+01 
661.174  9.40000000e+01 
661.138  8.80000000e+01 
661.102  8.50000000e+01 
661.066  8.10000000e+01 
661.030  9.10000000e+01 
660.995  8.70000000e+01 
660.959  9.30000000e+01 
660.923  1.01000000e+02 
660.887  9.80000000e+01 
660.851  1.01000000e+02 
660.815  9.80000000e+01 
660.779  7.70000000e+01 
660.743  9.30000000e+01 
660.707  9.80000000e+01 
660.671  9.90000000e+01 
660.635  9.30000000e+01 
660.599  7.60000000e+01 
660.563  8.60000000e+01 
660.527  8.30000000e+01 
660.491  1.12000000e+02 
660.455  9.00000000e+01 
660.420  9.20000000e+01 
660.384  8.00000000e+01 
660.348  8.10000000e+01 
660.312  1.06000000e+02 
660.276  9.30000000e+01 
660.240  9.10000000e+01 
660.204  9.60000000e+01 
660.168  8.40000000e+01 
660.132  9.30000000e+01 
660.096  7.60000000e+01 
660.060  1.05000000e+02 
660.024  1.05000000e+02 
659.988  1.15000000e+02 
659.952  1.18000000e+02 
659.916  8.70000000e+01 
659.880  7.30000000e+01 
659.845  8.80000000e+01 
659.809  7.30000000e+01 
659.773  9.60000000e+01 
659.737  8.30000000e+01 
659.701  7.80000000e+01 
659.665  1.03000000e+02 
659.629  9.40000000e+01 
659.593  9.00000000e+01 
659.557  8.20000000e+01 
659.521  9.50000000e+01 
659.485  9.50000000e+01 
659.449  9.30000000e+01 
659.413  8.80000000e+01 
659.377  7.90000000e+01 
659.341  9.30000000e+01 
659.305  8.40000000e+01 
659.270  8.40000000e+01 
659.234  1.06000000e+02 
659.198  8.50000000e+01 
659.162  8.60000000e+01 
659.126  9.30000000e+01 
659.090  1.04000000e+02 
659.054  9.30000000e+01 
659.018  8.60000000e+01 
658.982  1.12000000e+02 
658.946  1.05000000e+02 
658.910  8.60000000e+01 
658.874  9.30000000e+01 
658.838  9.20000000e+01 
658.802  8.60000000e+01 
658.766  8.00000000e+01 
658.730  9.10000000e+01 
658.695  1.24000000e+02 
658.659  1.04000000e+02 
658.623  8.20000000e+01 
658.587  9.70000000e+01 
658.551  9.40000000e+01 
658.515  8.00000000e+01 
658.479  1.01000000e+02 
658.443  9.00000000e+01 
658.407  8.00000000e+01 
658.371  1.08000000e+02 
658.335  1.08000000e+02 
658.299  1.09000000e+02 
658.263  8.80000000e+01 
658.227  9.80000000e+01 
658.191  1.03000000e+02 
658.155  9.40000000e+01 
658.120  1.08000000e+02 
658.084  8.90000000e+01 
658.048  1.04000000e+02 
658.012  1.09000000e+02 
657.976  1.12000000e+02 
657.940  9.00000000e+01 
657.904  1.03000000e+02 
657.868  1.06000000e+02 
657.832  8.80000000e+01 
657.796  1.04000000e+02 
657.760  1.12000000e+02 
657.724  1.03000000e+02 
657.688  1.05000000e+02 
657.652  1.00000000e+02 
657.616  9.80000000e+01 
657.580  8.60000000e+01 
657.545  1.00000000e+02 
657.509  1.06000000e+02 
657.473  1.01000000e+02 
657.437  1.08000000e+02 
657.401  9.40000000e+01 
657.365  8.70000000e+01 
657.329  1.14000000e+02 
657.293  1.02000000e+02 
657.257  9.60000000e+01 
657.221  9.20000000e+01 
657.185  8.80000000e+01 
657.149  8.50000000e+01 
657.113  9.10000000e+01 
657.077  7.20000000e+01 
657.041  9.10000000e+01 
657.005  9.70000000e+01 
656.970  1.08000000e+02 
656.934  9.60000000e+01 
656.898  9.70000000e+01 
656.862  9.50000000e+01 
656.826  1.00000000e+02 
656.790  1.03000000e+02 
656.754  9.80000000e+01 
656.718  9.30000000e+01 
656.682  1.00000000e+02 
656.646  9.20000000e+01 
656.610  1.14000000e+02 
656.574  8.80000000e+01 
656.538  8.90000000e+01 
656.502  1.10000000e+02 
656.466  1.13000000e+02 
656.430  8.70000000e+01 
656.395  1.19000000e+02 
656.359  1.00000000e+02 
656.323  9.80000000e+01 
656.287  8.40000000e+01 
656.251  8.70000000e+01 
656.215  1.09000000e+02 
656.179  9.80000000e+01 
656.143  9.40000000e+01 
656.107  1.14000000e+02 
656.071  1.02000000e+02 
656.035  1.04000000e+02 
655.999  9.80000000e+01 
655.963  8.60000000e+01 
655.927  8.80000000e+01 
655.891  9.60000000e+01 
655.855  8.00000000e+01 
655.820  9.10000000e+01 
655.784  9.00000000e+01 
655.748  9.20000000e+01 
655.712  8.30000000e+01 
655.676  1.00000000e+02 
655.640  7.60000000e+01 
655.604  8.20000000e+01 
655.568  1.00000000e+02 
655.532  9.10000000e+01 
655.496  9.10000000e+01 
655.460  1.00000000e+02 
655.424  8.50000000e+01 
655.388  1.01000000e+02 
655.352  1.04000000e+02 
655.316  9.20000000e+01 
655.280  1.00000000e+02 
655.245  8.40000000e+01 
655.209  8.40000000e+01 
655.173  9.10000000e+01 
655.137  8.60000000e+01 
655.101  9.20000000e+01 
655.065  8.10000000e+01 
655.029  9.20000000e+01 
654.993  8.90000000e+01 
654.957  8.20000000e+01 
654.921  8.70000000e+01 
654.885  8.00000000e+01 
654.849  8.00000000e+01 
654.813  9.10000000e+01 
654.777  9.70000000e+01 
654.741  8.60000000e+01 
654.705  8.10000000e+01 
654.670  9.30000000e+01 
654.634  9.20000000e+01 
654.598  8.90000000e+01 
654.562  9.20000000e+01 
654.526  6.60000000e+01 
654.490  9.10000000e+01 
654.454  8.00000000e+01 
654.418  7.50000000e+01 
654.382  8.50000000e+01 
654.346  8.90000000e+01 
654.310  9.60000000e+01 
654.274  7.90000000e+01 
654.238  8.80000000e+01 
654.202  8.70000000e+01 
654.166  7.70000000e+01 
654.130  8.30000000e+01 
654.095  8.60000000e+01 
654.059  9.90000000e+01 
654.023  8.80000000e+01 
653.987  9.00000000e+01 
653.951  8.10000000e+01 
653.915  8.20000000e+01 
653.879  9.50000000e+01 
653.843  7.40000000e+01 
653.807  8.10000000e+01 
653.771  8.30000000e+01 
653.735  9.60000000e+01 
653.699  8.80000000e+01 
653.663  9.70000000e+01 
653.627  8.40000000e+01 
653.591  8.80000000e+01 
653.555  1.06000000e+02 
653.520  9.70000000e+01 
653.484  8.10000000e+01 
653.448  9.60000000e+01 
653.412  8.10000000e+01 
653.376  9.10000000e+01 
653.340  8.10000000e+01 
653.304  7.20000000e+01 
653.268  9.70000000e+01 
653.232  9.00000000e+01 
653.196  8.90000000e+01 
653.160  8.60000000e+01 
653.124  7.40000000e+01 
653.088  9.30000000e+01 
653.052  6.70000000e+01 
653.016  8.60000000e+01 
652.980  6.40000000e+01 
652.945  8.10000000e+01 
652.909  8.30000000e+01 
652.873  8.60000000e+01 
652.837  7.50000000e+01 
652.801  8.20000000e+01 
652.765  9.20000000e+01 
652.729  8.20000000e+01 
652.693  7.50000000e+01 
652.657  8.10000000e+01 
652.621  8.60000000e+01 
652.585  9.90000000e+01 
652.549  8.90000000e+01 
652.513  8.80000000e+01 
652.477  7.10000000e+01 
652.441  9.20000000e+01 
652.405  1.04000000e+02 
652.370  8.70000000e+01 
652.334  8.50000000e+01 
652.298  9.00000000e+01 
652.262  8.10000000e+01 
652.226  8.00000000e+01 
652.190  1.04000000e+02 
652.154  8.40000000e+01 
652.118  7.70000000e+01 
652.082  9.50000000e+01 
652.046  7.90000000e+01 
652.010  6.20000000e+01 
651.974  8.40000000e+01 
651.938  9.20000000e+01 
651.902  9.40000000e+01 
651.866  9.90000000e+01 
651.830  8.90000000e+01 
651.795  9.40000000e+01 
651.759  8.60000000e+01 
651.723  9.10000000e+01 
651.687  1.01000000e+02 
651.651  7.10000000e+01 
651.615  8.40000000e+01 
651.579  7.50000000e+01 
651.543  1.03000000e+02 
651.507  9.90000000e+01 
651.471  9.20000000e+01 
651.435  1.04000000e+02 
651.399  8.50000000e+01 
651.363  8.50000000e+01 
651.327  8.90000000e+01 
651.291  9.00000000e+01 
651.255  7.50000000e+01 
651.220  8.30000000e+01 
651.184  9.40000000e+01 
651.148  8.30000000e+01 
651.112  7.20000000e+01 
651.076  8.80000000e+01 
651.040  8.50000000e+01 
651.004  8.60000000e+01 
650.968  9.70000000e+01 
650.932  6.90000000e+01 
650.896  8.10000000e+01 
650.860  9.10000000e+01 
650.824  8.10000000e+01 
650.788  9.20000000e+01 
650.752  9.60000000e+01 
650.716  1.03000000e+02 
650.680  7.50000000e+01 
650.645  8.40000000e+01 
650.609  8.30000000e+01 
650.573  9.60000000e+01 
650.537  9.00000000e+01 
650.501  8.10000000e+01 
650.465  8.30000000e+01 
650.429  9.50000000e+01 
650.393  8.30000000e+01 
650.357  8.00000000e+01 
650.321  8.40000000e+01 
650.285  7.80000000e+01 
650.249  1.06000000e+02 
650.213  9.70000000e+01 
650.177  8.20000000e+01 
650.141  9.70000000e+01 
650.105  9.60000000e+01 
650.070  8.40000000e+01 
650.034  8.20000000e+01 
649.998  9.00000000e+01 
649.962  9.30000000e+01 
649.926  7.90000000e+01 
649.890  7.80000000e+01 
649.854  9.70000000e+01 
649.818  8.50000000e+01 
649.782  1.01000000e+02 
649.746  8.90000000e+01 
649.710  8.40000000e+01 
649.674  8.80000000e+01 
649.638  8.50000000e+01 
649.602  1.02000000e+02 
649.566  8.60000000e+01 
649.530  9.70000000e+01 
649.495  9.10000000e+01 
649.459  8.60000000e+01 
649.423  1.00000000e+02 
649.387  8.10000000e+01 
649.351  8.30000000e+01 
649.315  7.80000000e+01 
649.279  7.90000000e+01 
649.243  1.09000000e+02 
649.207  8.40000000e+01 
649.171  8.30000000e+01 
649.135  8.20000000e+01 
649.099  9.90000000e+01 
649.063  9.10000000e+01 
649.027  8.60000000e+01 
648.991  9.30000000e+01 
648.955  8.50000000e+01 
648.920  1.05000000e+02 
648.884  1.06000000e+02 
648.848  7.20000000e+01 
648.812  8.20000000e+01 
648.776  1.02000000e+02 
648.740  9.20000000e+01 
648.704  1.04000000e+02 
648.668  8.70000000e+01 
648.632  8.20000000e+01 
648.596  9.00000000e+01 
648.560  9.80000000e+01 
648.524  9.20000000e+01 
648.488  8.20000000e+01 
648.452  7.50000000e+01 
648.416  1.00000000e+02 
648.380  8.00000000e+01 
648.345  8.70000000e+01 
648.309  8.60000000e+01 
648.273  8.00000000e+01 
648.237  8.50000000e+01 
648.201  8.80000000e+01 
648.165  7.50000000e+01 
648.129  9.60000000e+01 
648.093  1.00000000e+02 
648.057  1.06000000e+02 
648.021  9.30000000e+01 
647.985  7.50000000e+01 
647.949  1.09000000e+02 
647.913  9.80000000e+01 
647.877  8.10000000e+01 
647.841  8.20000000e+01 
647.805  7.40000000e+01 
647.770  8.70000000e+01 
647.734  8.00000000e+01 
647.698  8.20000000e+01 
647.662  9.50000000e+01 
647.626  8.70000000e+01 
647.590  8.30000000e+01 
647.554  7.60000000e+01 
647.518  1.07000000e+02 
647.482  9.60000000e+01 
647.446  7.10000000e+01 
647.410  9.10000000e+01 
647.374  9.60000000e+01 
647.338  8.40000000e+01 
647.302  1.00000000e+02 
647.266  9.10000000e+01 
647.230  9.70000000e+01 
647.195  9.30000000e+01 
647.159  9.50000000e+01 
647.123  9.10000000e+01 
647.087  9.60000000e+01 
647.051  1.01000000e+02 
647.015  9.00000000e+01 
646.979  1.03000000e+02 
646.943  1.04000000e+02 
646.907  9.80000000e+01 
646.871  8.80000000e+01 
646.835  8.60000000e+01 
646.799  1.03000000e+02 
646.763  9.00000000e+01 
646.727  8.80000000e+01 
646.691  8.10000000e+01 
646.655  1.01000000e+02 
646.620  7.70000000e+01 
646.584  1.08000000e+02 
646.548  9.50000000e+01 
646.512  9.70000000e+01 
646.476  1.05000000e+02 
646.440  9.10000000e+01 
646.404  8.50000000e+01 
646.368  8.50000000e+01 
646.332  8.40000000e+01 
646.296  9.90000000e+01 
646.260  1.11000000e+02 
646.224  9.80000000e+01 
646.188  9.80000000e+01 
646.152  1.12000000e+02 
646.116  9.80000000e+01 
646.080  9.50000000e+01 
646.045  9.20000000e+01 
646.009  1.14000000e+02 
645.973  8.80000000e+01 
645.937  9.10000000e+01 
645.901  9.40000000e+01 
645.865  1.00000000e+02 
645.829  1.11000000e+02 
645.793  1.14000000e+02 
645.757  9.70000000e+01 
645.721  1.04000000e+02 
645.685  9.60000000e+01 
645.649  9.70000000e+01 
645.613  1.06000000e+02 
645.577  1.06000000e+02 
645.541  9.90000000e+01 
645.505  1.01000000e+02 
645.470  1.09000000e+02 
645.434  1.27000000e+02 
645.398  1.07000000e+02 
645.362  1.22000000e+02 
645.326  1.06000000e+02 
645.290  8.90000000e+01 
645.254  1.00000000e+02 
645.218  9.00000000e+01 
645.182  1.01000000e+02 
645.146  1.06000000e+02 
645.110  1.00000000e+02 
645.074  1.04000000e+02 
645.038  9.20000000e+01 
645.002  9.00000000e+01 
644.966  9.80000000e+01 
644.930  9.30000000e+01 
644.895  1.06000000e+02 
644.859  1.04000000e+02 
644.823  1.08000000e+02 
644.787  9.00000000e+01 
644.751  1.18000000e+02 
644.715  8.70000000e+01 
644.679  9.60000000e+01 
644.643  9.60000000e+01 
644.607  9.50000000e+01 
644.571  1.07000000e+02 
644.535  9.90000000e+01 
644.499  1.10000000e+02 
644.463  9.20000000e+01 
644.427  8.40000000e+01 
644.391  1.06000000e+02 
644.355  8.90000000e+01 
644.320  1.17000000e+02 
644.284  9.70000000e+01 
644.248  1.00000000e+02 
644.212  1.03000000e+02 
644.176  1.07000000e+02 
644.140  1.19000000e+02 
644.104  9.00000000e+01 
644.068  8.50000000e+01 
644.032  1.05000000e+02 
643.996  9.60000000e+01 
643.960  9.50000000e+01 
643.924  1.00000000e+02 
643.888  7.10000000e+01 
643.852  9.70000000e+01 
643.816  1.18000000e+02 
643.780  1.04000000e+02 
643.745  7.90000000e+01 
643.709  8.50000000e+01 
643.673  9.30000000e+01 
643.637  8.80000000e+01 
643.601  9.90000000e+01 
643.565  9.50000000e+01 
643.529  9.50000000e+01 
643.493  9.90000000e+01 
643.457  7.70000000e+01 
643.421  8.30000000e+01 
643.385  8.90000000e+01 
643.349  1.01000000e+02 
643.313  9.20000000e+01 
643.277  1.00000000e+02 
643.241  9.50000000e+01 
643.205  1.01000000e+02 
643.170  9.30000000e+01 
643.134  7.60000000e+01 
643.098  7.20000000e+01 
643.062  9.20000000e+01 
643.026  8.70000000e+01 
642.990  7.80000000e+01 
642.954  7.50000000e+01 
642.918  6.70000000e+01 
642.882  8.90000000e+01 
642.846  9.30000000e+01 
642.810  7.20000000e+01 
642.774  8.50000000e+01 
642.738  7.80000000e+01 
642.702  8.70000000e+01 
642.666  9.80000000e+01 
642.630  8.20000000e+01 
642.595  9.00000000e+01 
642.559  8.40000000e+01 
642.523  8.10000000e+01 
642.487  7.90000000e+01 
642.451  8.80000000e+01 
642.415  8.00000000e+01 
642.379  8.80000000e+01 
642.343  8.60000000e+01 
642.307  8.30000000e+01 
642.271  9.00000000e+01 
642.235  8.00000000e+01 
642.199  8.50000000e+01 
642.163  7.20000000e+01 
642.127  9.20000000e+01 
642.091  1.00000000e+02 
642.055  8.60000000e+01 
642.020  8.20000000e+01 
641.984  8.60000000e+01 
641.948  7.30000000e+01 
641.912  9.60000000e+01 
641.876  8.30000000e+01 
641.840  7.90000000e+01 
641.804  9.40000000e+01 
641.768  9.10000000e+01 
641.732  6.60000000e+01 
641.696  9.40000000e+01 
641.660  6.80000000e+01 
641.624  6.50000000e+01 
641.588  7.70000000e+01 
641.552  8.90000000e+01 
641.516  7.80000000e+01 
641.480  9.80000000e+01 
641.445  8.50000000e+01 
641.409  9.60000000e+01 
641.373  6.90000000e+01 
641.337  8.50000000e+01 
641.301  7.40000000e+01 
641.265  1.01000000e+02 
641.229  6.90000000e+01 
641.193  7.00000000e+01 
641.157  7.90000000e+01 
641.121  8.10000000e+01 
641.085  8.00000000e+01 
641.049  8.20000000e+01 
641.013  6.60000000e+01 
640.977  8.30000000e+01 
640.941  9.30000000e+01 
640.905  5.80000000e+01 
640.870  8.10000000e+01 
640.834  9.30000000e+01 
640.798  8.40000000e+01 
640.762  8.20000000e+01 
640.726  8.30000000e+01 
640.690  7.60000000e+01 
640.654  7.60000000e+01 
640.618  7.60000000e+01 
640.582  9.10000000e+01 
640.546  9.50000000e+01 
640.510  7.70000000e+01 
640.474  7.70000000e+01 
640.438  7.50000000e+01 
640.402  8.00000000e+01 
640.366  6.60000000e+01 
640.330  8.80000000e+01 
640.295  7.20000000e+01 
640.259  6.90000000e+01 
640.223  8.20000000e+01 
640.187  7.60000000e+01 
640.151  7.80000000e+01 
640.115  6.40000000e+01 
640.079  7.50000000e+01 
640.043  8.00000000e+01 
640.007  7.10000000e+01 
639.971  8.40000000e+01 
639.935  8.00000000e+01 
639.899  9.90000000e+01 
639.863  5.90000000e+01 
639.827  9.30000000e+01 
639.791  8.90000000e+01 
639.755  8.40000000e+01 
639.720  7.50000000e+01 
639.684  8.00000000e+01 
639.648  8.30000000e+01 
639.612  8.40000000e+01 
639.576  8.80000000e+01 
639.540  7.70000000e+01 
639.504  8.90000000e+01 
639.468  6.60000000e+01 
639.432  8.80000000e+01 
639.396  7.80000000e+01 
639.360  8.30000000e+01 
639.324  7.90000000e+01 
639.288  9.40000000e+01 
639.252  7.40000000e+01 
639.216  7.80000000e+01 
639.180  6.90000000e+01 
639.145  6.80000000e+01 
639.109  7.30000000e+01 
639.073  8.60000000e+01 
639.037  1.09000000e+02 
639.001  7.80000000e+01 
638.965  8.30000000e+01 
638.929  6.60000000e+01 
638.893  7.50000000e+01 
638.857  6.80000000e+01 
638.821  8.60000000e+01 
638.785  6.90000000e+01 
638.749  8.40000000e+01 
638.713  7.90000000e+01 
638.677  7.70000000e+01 
638.641  8.70000000e+01 
638.605  7.70000000e+01 
638.570  6.60000000e+01 
638.534  7.70000000e+01 
638.498  7.80000000e+01 
638.462  8.40000000e+01 
638.426  7.50000000e+01 
638.390  8.70000000e+01 
638.354  8.50000000e+01 
638.318  8.10000000e+01 
638.282  7.50000000e+01 
638.246  7.00000000e+01 
638.210  9.30000000e+01 
638.174  7.40000000e+01 
638.138  7.10000000e+01 
638.102  8.00000000e+01 
638.066  7.30000000e+01 
638.030  8.70000000e+01 
637.995  8.90000000e+01 
637.959  7.80000000e+01 
637.923  7.50000000e+01 
637.887  7.70000000e+01 
637.851  8.70000000e+01 
637.815  7.10000000e+01 
637.779  9.20000000e+01 
637.743  7.20000000e+01 
637.707  8.00000000e+01 
637.671  8.10000000e+01 
637.635  8.80000000e+01 
637.599  8.60000000e+01 
637.563  6.30000000e+01 
637.527  8.00000000e+01 
637.491  8.40000000e+01 
637.455  6.90000000e+01 
637.420  7.00000000e+01 
637.384  8.70000000e+01 
637.348  7.70000000e+01 
637.312  5.80000000e+01 
637.276  8.80000000e+01 
637.240  7.60000000e+01 
637.204  9.50000000e+01 
637.168  7.40000000e+01 
637.132  8.00000000e+01 
637.096  7.20000000e+01 
637.060  7.10000000e+01 
637.024  8.10000000e+01 
636.988  9.50000000e+01 
636.952  8.00000000e+01 
636.916  7.40000000e+01 
636.880  7.00000000e+01 
636.845  7.40000000e+01 
636.809  9.60000000e+01 
636.773  6.90000000e+01 
636.737  8.20000000e+01 
636.701  9.80000000e+01 
636.665  6.90000000e+01 
636.629  8.70000000e+01 
636.593  8.20000000e+01 
636.557  7.70000000e+01 
636.521  7.30000000e+01 
636.485  8.60000000e+01 
636.449  7.00000000e+01 
636.413  8.60000000e+01 
636.377  8.40000000e+01 
636.341  7.80000000e+01 
636.305  8.60000000e+01 
636.270  9.00000000e+01 
636.234  9.10000000e+01 
636.198  8.40000000e+01 
636.162  7.50000000e+01 
636.126  7.10000000e+01 
636.090  7.60000000e+01 
636.054  7.10000000e+01 
636.018  8.10000000e+01 
635.982  8.00000000e+01 
635.946  7.10000000e+01 
635.910  7.80000000e+01 
635.874  7.80000000e+01 
635.838  8.10000000e+01 
635.802  7.50000000e+01 
635.766  7.20000000e+01 
635.730  6.60000000e+01 
635.695  6.30000000e+01 
635.659  7.20000000e+01 
635.623  7.10000000e+01 
635.587  7.40000000e+01 
635.551  6.80000000e+01 
635.515  8.50000000e+01 
635.479  6.30000000e+01 
635.443  7.30000000e+01 
635.407  8.20000000e+01 
635.371  6.70000000e+01 
635.335  8.90000000e+01 
635.299  8.70000000e+01 
635.263  8.00000000e+01 
635.227  8.40000000e+01 
635.191  7.30000000e+01 
635.155  7.20000000e+01 
635.120  8.30000000e+01 
635.084  8.10000000e+01 
635.048  6.50000000e+01 
635.012  7.50000000e+01 
634.976  7.60000000e+01 
634.940  8.40000000e+01 
634.904  7.80000000e+01 
634.868  8.70000000e+01 
634.832  8.40000000e+01 
634.796  8.90000000e+01 
634.760  8.30000000e+01 
634.724  7.00000000e+01 
634.688  7.20000000e+01 
634.652  7.60000000e+01 
634.616  8.40000000e+01 
634.580  6.70000000e+01 
634.545  7.90000000e+01 
634.509  8.80000000e+01 
634.473  8.80000000e+01 
634.437  9.20000000e+01 
634.401  7.80000000e+01 
634.365  7.60000000e+01 
634.329  7.00000000e+01 
634.293  7.30000000e+01 
634.257  7.30000000e+01 
634.221  8.70000000e+01 
634.185  7.20000000e+01 
634.149  7.70000000e+01 
634.113  7.10000000e+01 
634.077  8.20000000e+01 
634.041  7.90000000e+01 
634.005  7.30000000e+01 
633.970  8.40000000e+01 
633.934  7.80000000e+01 
633.898  7.50000000e+01 
633.862  7.40000000e+01 
633.826  7.80000000e+01 
633.790  9.40000000e+01 
633.754  8.20000000e+01 
633.718  7.30000000e+01 
633.682  7.20000000e+01 
633.646  8.10000000e+01 
633.610  9.20000000e+01 
633.574  7.80000000e+01 
633.538  7.90000000e+01 
633.502  8.20000000e+01 
633.466  8.20000000e+01 
633.430  6.50000000e+01 
633.395  7.80000000e+01 
633.359  6.90000000e+01 
633.323  8.70000000e+01 
633.287  8.20000000e+01 
633.251  9.00000000e+01 
633.215  8.50000000e+01 
633.179  7.50000000e+01 
633.143  8.80000000e+01 
633.107  8.90000000e+01 
633.071  9.60000000e+01 
633.035  9.00000000e+01 
632.999  9.20000000e+01 
632.963  7.60000000e+01 
632.927  7.60000000e+01 
632.891  7.50000000e+01 
632.855  9.50000000e+01 
632.820  8.20000000e+01 
632.784  7.40000000e+01 
632.748  7.20000000e+01 
632.712  8.90000000e+01 
632.676  7.10000000e+01 
632.640  8.30000000e+01 
632.604  7.70000000e+01 
632.568  8.10000000e+01 
632.532  8.80000000e+01 
632.496  8.70000000e+01 
632.460  7.30000000e+01 
632.424  8.60000000e+01 
632.388  6.80000000e+01 
632.352  8.00000000e+01 
632.316  8.10000000e+01 
632.280  7.90000000e+01 
632.245  7.20000000e+01 
632.209  7.20000000e+01 
632.173  8.70000000e+01 
632.137  9.80000000e+01 
632.101  8.40000000e+01 
632.065  8.90000000e+01 
632.029  8.20000000e+01 
631.993  8.50000000e+01 
631.957  8.00000000e+01 
631.921  7.20000000e+01 
631.885  9.40000000e+01 
631.849  8.10000000e+01 
631.813  8.70000000e+01 
631.777  8.60000000e+01 
631.741  6.10000000e+01 
631.705  6.10000000e+01 
631.670  8.80000000e+01 
631.634  7.20000000e+01 
631.598  7.70000000e+01 
631.562  6.60000000e+01 
631.526  8.30000000e+01 
631.490  8.40000000e+01 
631.454  7.60000000e+01 
631.418  7.20000000e+01 
631.382  7.90000000e+01 
631.346  7.90000000e+01 
631.310  6.50000000e+01 
631.274  7.20000000e+01 
631.238  9.30000000e+01 
631.202  7.10000000e+01 
631.166  8.30000000e+01 
631.130  7.70000000e+01 
631.095  7.50000000e+01 
631.059  8.50000000e+01 
631.023  8.80000000e+01 
630.987  8.70000000e+01 
630.951  7.50000000e+01 
630.915  8.30000000e+01 
630.879  7.50000000e+01 
630.843  6.80000000e+01 
630.807  8.40000000e+01 
630.771  7.40000000e+01 
630.735  7.70000000e+01 
630.699  8.70000000e+01 
630.663  7.50000000e+01 
630.627  9.10000000e+01 
630.591  6.90000000e+01 
630.555  8.70000000e+01 
630.520  7.30000000e+01 
630.484  8.80000000e+01 
630.448  7.90000000e+01 
630.412  6.70000000e+01 
630.376  7.60000000e+01 
630.340  6.80000000e+01 
630.304  7.30000000e+01 
630.268  8.50000000e+01 
630.232  7.00000000e+01 
630.196  9.00000000e+01 
630.160  8.00000000e+01 
630.124  7.30000000e+01 
630.088  7.30000000e+01 
630.052  8.00000000e+01 
630.016  6.90000000e+01 
629.980  7.70000000e+01 
629.945  6.60000000e+01 
629.909  7.60000000e+01 
629.873  7.50000000e+01 
629.837  8.20000000e+01 
629.801  8.50000000e+01 
629.765  8.30000000e+01 
629.729  8.90000000e+01 
629.693  7.50000000e+01 
629.657  8.10000000e+01 
629.621  8.10000000e+01 
629.585  7.70000000e+01 
629.549  7.60000000e+01 
629.513  9.30000000e+01 
629.477  5.90000000e+01 
629.441  7.80000000e+01 
629.405  8.40000000e+01 
629.370  7.60000000e+01 
629.334  7.80000000e+01 
629.298  8.40000000e+01 
629.262  9.00000000e+01 
629.226  8.70000000e+01 
629.190  8.50000000e+01 
629.154  6.80000000e+01 
629.118  7.80000000e+01 
629.082  8.80000000e+01 
629.046  8.80000000e+01 
629.010  7.20000000e+01 
628.974  7.20000000e+01 
628.938  7.00000000e+01 
628.902  8.90000000e+01 
628.866  6.50000000e+01 
628.830  8.10000000e+01 
628.795  8.60000000e+01 
628.759  9.10000000e+01 
628.723  9.80000000e+01 
628.687  8.10000000e+01 
628.651  9.10000000e+01 
628.615  8.80000000e+01 
628.579  7.10000000e+01 
628.543  8.90000000e+01 
628.507  8.80000000e+01 
628.471  7.90000000e+01 
628.435  7.40000000e+01 
628.399  5.90000000e+01 
628.363  8.00000000e+01 
628.327  9.70000000e+01 
628.291  6.70000000e+01 
628.255  7.50000000e+01 
628.220  8.50000000e+01 
628.184  8.20000000e+01 
628.148  6.70000000e+01 
628.112  7.20000000e+01 
628.076  6.90000000e+01 
628.040  7.80000000e+01 
628.004  8.60000000e+01 
627.968  8.00000000e+01 
627.932  8.50000000e+01 
627.896  9.50000000e+01 
627.860  8.40000000e+01 
627.824  8.20000000e+01 
627.788  6.60000000e+01 
627.752  9.20000000e+01 
627.716  7.10000000e+01 
627.680  8.20000000e+01 
627.645  8.80000000e+01 
627.609  8.00000000e+01 
627.573  8.00000000e+01 
627.537  7.30000000e+01 
627.501  8.20000000e+01 
627.465  7.10000000e+01 
627.429  9.00000000e+01 
627.393  6.50000000e+01 
627.357  8.50000000e+01 
627.321  8.70000000e+01 
627.285  8.60000000e+01 
627.249  8.80000000e+01 
627.213  7.90000000e+01 
627.177  9.40000000e+01 
627.141  8.00000000e+01 
627.105  7.40000000e+01 
627.070  7.10000000e+01 
627.034  7.10000000e+01 
626.998  6.60000000e+01 
626.962  7.20000000e+01 
626.926  1.01000000e+02 
626.890  7.80000000e+01 
626.854  8.10000000e+01 
626.818  6.90000000e+01 
626.782  6.40000000e+01 
626.746  7.80000000e+01 
626.710  8.60000000e+01 
626.674  7.30000000e+01 
626.638  7.60000000e+01 
626.602  7.60000000e+01 
626.566  9.60000000e+01 
626.530  8.30000000e+01 
626.495  8.20000000e+01 
626.459  8.10000000e+01 
626.423  7.50000000e+01 
626.387  7.70000000e+01 
626.351  7.80000000e+01 
626.315  8.50000000e+01 
626.279  6.70000000e+01 
626.243  7.70000000e+01 
626.207  9.00000000e+01 
626.171  7.80000000e+01 
626.135  8.40000000e+01 
626.099  7.70000000e+01 
626.063  7.70000000e+01 
626.027  8.60000000e+01 
625.991  7.80000000e+01 
625.955  8.50000000e+01 
625.920  8.40000000e+01 
625.884  7.80000000e+01 
625.848  9.50000000e+01 
625.812  9.90000000e+01 
625.776  8.80000000e+01 
625.740  9.20000000e+01 
625.704  7.60000000e+01 
625.668  9.60000000e+01 
625.632  7.10000000e+01 
625.596  7.90000000e+01 
625.560  7.40000000e+01 
625.524  7.80000000e+01 
625.488  8.30000000e+01 
625.452  8.80000000e+01 
625.416  8.80000000e+01 
625.380  9.30000000e+01 
625.345  7.10000000e+01 
625.309  7.90000000e+01 
625.273  8.90000000e+01 
625.237  7.60000000e+01 
625.201  7.40000000e+01 
625.165  8.30000000e+01 
625.129  7.80000000e+01 
625.093  8.10000000e+01 
625.057  9.00000000e+01 
625.021  8.30000000e+01 
624.985  7.90000000e+01 
624.949  1.03000000e+02 
624.913  8.20000000e+01 
624.877  7.30000000e+01 
624.841  7.90000000e+01 
624.805  8.70000000e+01 
624.770  8.00000000e+01 
624.734  8.40000000e+01 
624.698  8.20000000e+01 
624.662  9.20000000e+01 
624.626  1.05000000e+02 
624.590  7.80000000e+01 
624.554  8.20000000e+01 
624.518  8.20000000e+01 
624.482  7.90000000e+01 
624.446  9.10000000e+01 
624.410  8.40000000e+01 
624.374  8.40000000e+01 
624.338  8.80000000e+01 
624.302  7.40000000e+01 
624.266  6.50000000e+01 
624.230  7.10000000e+01 
624.195  7.40000000e+01 
624.159  7.50000000e+01 
624.123  9.20000000e+01 
624.087  8.60000000e+01 
624.051  8.40000000e+01 
624.015  8.90000000e+01 
623.979  8.10000000e+01 
623.943  8.00000000e+01 
623.907  7.50000000e+01 
623.871  7.10000000e+01 
623.835  6.40000000e+01 
623.799  7.60000000e+01 
623.763  8.50000000e+01 
623.727  9.00000000e+01 
623.691  9.40000000e+01 
623.655  8.60000000e+01 
623.620  8.90000000e+01 
623.584  8.00000000e+01 
623.548  8.10000000e+01 
623.512  8.60000000e+01 
623.476  8.60000000e+01 
623.440  1.04000000e+02 
623.404  9.00000000e+01 
623.368  9.30000000e+01 
623.332  8.40000000e+01 
623.296  6.50000000e+01 
623.260  9.30000000e+01 
623.224  8.40000000e+01 
623.188  6.20000000e+01 
623.152  7.50000000e+01 
623.116  6.90000000e+01 
623.080  7.80000000e+01 
623.045  9.80000000e+01 
623.009  6.80000000e+01 
622.973  8.00000000e+01 
622.937  5.80000000e+01 
622.901  7.10000000e+01 
622.865  8.60000000e+01 
622.829  7.90000000e+01 
622.793  9.80000000e+01 
622.757  9.60000000e+01 
622.721  9.00000000e+01 
622.685  9.00000000e+01 
622.649  8.20000000e+01 
622.613  8.40000000e+01 
622.577  7.90000000e+01 
622.541  7.80000000e+01 
622.505  8.40000000e+01 
622.470  6.80000000e+01 
622.434  8.90000000e+01 
622.398  7.50000000e+01 
622.362  7.90000000e+01 
622.326  8.00000000e+01 
622.290  6.90000000e+01 
622.254  8.10000000e+01 
622.218  9.40000000e+01 
622.182  6.40000000e+01 
622.146  7.10000000e+01 
622.110  8.40000000e+01 
622.074  8.10000000e+01 
622.038  8.00000000e+01 
622.002  7.70000000e+01 
621.966  8.80000000e+01 
621.930  8.20000000e+01 
621.895  8.10000000e+01 
621.859  8.40000000e+01 
621.823  8.30000000e+01 
621.787  6.10000000e+01 
621.751  8.50000000e+01 
621.715  6.90000000e+01 
621.679  8.00000000e+01 
621.643  9.10000000e+01 
621.607  1.02000000e+02 
621.571  9.60000000e+01 
621.535  8.40000000e+01 
621.499  9.50000000e+01 
621.463  7.30000000e+01 
621.427  8.30000000e+01 
621.391  6.50000000e+01 
621.355  8.40000000e+01 
621.320  8.60000000e+01 
621.284  7.00000000e+01 
621.248  7.50000000e+01 
621.212  7.10000000e+01 
621.176  8.30000000e+01 
621.140  8.30000000e+01 
621.104  8.10000000e+01 
621.068  8.40000000e+01 
621.032  7.20000000e+01 
620.996  7.90000000e+01 
620.960  9.10000000e+01 
620.924  1.04000000e+02 
620.888  8.40000000e+01 
620.852  8.90000000e+01 
620.816  9.20000000e+01 
620.780  8.40000000e+01 
620.745  7.60000000e+01 
620.709  8.50000000e+01 
620.673  1.00000000e+02 
620.637  7.80000000e+01 
620.601  7.90000000e+01 
620.565  8.20000000e+01 
620.529  8.70000000e+01 
620.493  8.70000000e+01 
620.457  9.30000000e+01 
620.421  6.60000000e+01 
620.385  6.50000000e+01 
620.349  1.00000000e+02 
620.313  9.00000000e+01 
620.277  6.90000000e+01 
620.241  7.70000000e+01 
620.205  8.30000000e+01 
620.170  7.00000000e+01 
620.134  7.80000000e+01 
620.098  8.70000000e+01 
620.062  9.30000000e+01 
620.026  7.40000000e+01 
619.990  7.90000000e+01 
619.954  8.10000000e+01 
619.918  7.20000000e+01 
619.882  7.40000000e+01 
619.846  7.20000000e+01 
619.810  8.60000000e+01 
619.774  6.70000000e+01 
619.738  6.80000000e+01 
619.702  8.70000000e+01 
619.666  9.50000000e+01 
619.630  7.50000000e+01 
619.595  1.08000000e+02 
619.559  8.30000000e+01 
619.523  7.40000000e+01 
619.487  9.60000000e+01 
619.451  8.50000000e+01 
619.415  7.40000000e+01 
619.379  8.20000000e+01 
619.343  7.90000000e+01 
619.307  7.30000000e+01 
619.271  7.30000000e+01 
619.235  8.50000000e+01 
619.199  8.30000000e+01 
619.163  9.90000000e+01 
619.127  8.30000000e+01 
619.091  7.90000000e+01 
619.055  1.00000000e+02 
619.020  8.80000000e+01 
618.984  7.20000000e+01 
618.948  8.70000000e+01 
618.912  8.20000000e+01 
618.876  7.60000000e+01 
618.840  7.40000000e+01 
618.804  8.10000000e+01 
618.768  6.70000000e+01 
618.732  1.02000000e+02 
618.696  8.10000000e+01 
618.660  7.80000000e+01 
618.624  8.40000000e+01 
618.588  8.40000000e+01 
618.552  7.90000000e+01 
618.516  8.70000000e+01 
618.480  7.90000000e+01 
618.445  7.50000000e+01 
618.409  7.00000000e+01 
618.373  7.40000000e+01 
618.337  9.20000000e+01 
618.301  6.80000000e+01 
618.265  7.80000000e+01 
618.229  9.40000000e+01 
618.193  8.60000000e+01 
618.157  8.00000000e+01 
618.121  9.30000000e+01 
618.085  7.50000000e+01 
618.049  8.80000000e+01 
618.013  9.70000000e+01 
617.977  8.00000000e+01 
617.941  9.10000000e+01 
617.905  8.90000000e+01 
617.870  8.00000000e+01 
617.834  8.50000000e+01 
617.798  9.60000000e+01 
617.762  7.70000000e+01 
617.726  8.70000000e+01 
617.690  8.80000000e+01 
617.654  7.90000000e+01 
617.618  9.50000000e+01 
617.582  8.70000000e+01 
617.546  8.50000000e+01 
617.510  8.70000000e+01 
617.474  8.80000000e+01 
617.438  7.80000000e+01 
617.402  8.00000000e+01 
617.366  7.90000000e+01 
617.330  9.00000000e+01 
617.295  8.30000000e+01 
617.259  7.90000000e+01 
617.223  8.00000000e+01 
617.187  7.70000000e+01 
617.151  9.10000000e+01 
617.115  8.20000000e+01 
617.079  1.00000000e+02 
617.043  9.00000000e+01 
617.007  8.70000000e+01 
616.971  7.60000000e+01 
616.935  9.10000000e+01 
616.899  1.06000000e+02 
616.863  7.30000000e+01 
616.827  6.60000000e+01 
616.791  1.02000000e+02 
616.755  7.50000000e+01 
616.720  8.30000000e+01 
616.684  8.30000000e+01 
616.648  7.40000000e+01 
616.612  7.10000000e+01 
616.576  9.80000000e+01 
616.540  8.50000000e+01 
616.504  8.70000000e+01 
616.468  8.30000000e+01 
616.432  8.30000000e+01 
616.396  7.80000000e+01 
616.360  1.00000000e+02 
616.324  8.30000000e+01 
616.288  8.50000000e+01 
616.252  7.30000000e+01 
616.216  7.80000000e+01 
616.180  8.90000000e+01 
616.145  8.80000000e+01 
616.109  6.90000000e+01 
616.073  8.30000000e+01 
616.037  8.10000000e+01 
616.001  1.00000000e+02 
615.965  8.90000000e+01 
615.929  7.50000000e+01 
615.893  9.20000000e+01 
615.857  9.00000000e+01 
615.821  8.10000000e+01 
615.785  9.00000000e+01 
615.749  8.50000000e+01 
615.713  8.80000000e+01 
615.677  7.70000000e+01 
615.641  8.90000000e+01 
615.605  9.00000000e+01 
615.570  6.70000000e+01 
615.534  8.30000000e+01 
615.498  8.30000000e+01 
615.462  7.30000000e+01 
615.426  8.90000000e+01 
615.390  9.10000000e+01 
615.354  6.70000000e+01 
615.318  7.30000000e+01 
615.282  8.30000000e+01 
615.246  8.90000000e+01 
615.210  8.90000000e+01 
615.174  6.80000000e+01 
615.138  8.50000000e+01 
615.102  7.90000000e+01 
615.066  8.80000000e+01 
615.030  8.20000000e+01 
614.995  7.80000000e+01 
614.959  8.70000000e+01 
614.923  1.08000000e+02 
614.887  9.10000000e+01 
614.851  8.00000000e+01 
614.815  8.70000000e+01 
614.779  7.80000000e+01 
614.743  9.30000000e+01 
614.707  8.60000000e+01 
614.671  8.90000000e+01 
614.635  6.90000000e+01 
614.599  8.00000000e+01 
614.563  8.30000000e+01 
614.527  7.40000000e+01 
614.491  8.40000000e+01 
614.455  7.60000000e+01 
614.420  7.60000000e+01 
614.384  7.60000000e+01 
614.348  8.00000000e+01 
614.312  7.60000000e+01 
614.276  7.50000000e+01 
614.240  8.40000000e+01 
614.204  8.30000000e+01 
614.168  9.60000000e+01 
614.132  7.60000000e+01 
614.096  9.20000000e+01 
614.060  9.50000000e+01 
614.024  9.40000000e+01 
613.988  7.90000000e+01 
613.952  9.00000000e+01 
613.916  7.30000000e+01 
613.880  7.90000000e+01 
613.845  9.10000000e+01 
613.809  8.50000000e+01 
613.773  7.90000000e+01 
613.737  9.50000000e+01 
613.701  9.60000000e+01 
613.665  8.60000000e+01 
613.629  8.30000000e+01 
613.593  9.20000000e+01 
613.557  8.70000000e+01 
613.521  7.40000000e+01 
613.485  7.30000000e+01 
613.449  7.90000000e+01 
613.413  6.30000000e+01 
613.377  8.00000000e+01 
613.341  6.10000000e+01 
613.305  7.30000000e+01 
613.270  1.04000000e+02 
613.234  8.00000000e+01 
613.198  7.30000000e+01 
613.162  8.80000000e+01 
613.126  6.70000000e+01 
613.090  8.50000000e+01 
613.054  1.00000000e+02 
613.018  8.60000000e+01 
612.982  8.40000000e+01 
612.946  8.00000000e+01 
612.910  8.50000000e+01 
612.874  8.30000000e+01 
612.838  8.00000000e+01 
612.802  7.60000000e+01 
612.766  7.10000000e+01 
612.730  1.05000000e+02 
612.695  7.40000000e+01 
612.659  8.80000000e+01 
612.623  7.80000000e+01 
612.587  7.30000000e+01 
612.551  6.80000000e+01 
612.515  9.50000000e+01 
612.479  7.80000000e+01 
612.443  9.60000000e+01 
612.407  8.30000000e+01 
612.371  6.50000000e+01 
612.335  8.30000000e+01 
612.299  7.50000000e+01 
612.263  9.80000000e+01 
612.227  7.70000000e+01 
612.191  8.70000000e+01 
612.155  8.70000000e+01 
612.120  8.60000000e+01 
612.084  6.80000000e+01 
612.048  7.00000000e+01 
612.012  8.90000000e+01 
611.976  8.40000000e+01 
611.940  7.20000000e+01 
611.904  6.00000000e+01 
611.868  8.00000000e+01 
611.832  8.70000000e+01 
611.796  7.40000000e+01 
611.760  8.30000000e+01 
611.724  7.70000000e+01 
611.688  8.00000000e+01 
611.652  9.40000000e+01 
611.616  8.30000000e+01 
611.580  7.50000000e+01 
611.545  7.80000000e+01 
611.509  7.60000000e+01 
611.473  8.80000000e+01 
611.437  8.60000000e+01 
611.401  7.60000000e+01 
611.365  7.90000000e+01 
611.329  8.50000000e+01 
611.293  8.50000000e+01 
611.257  7.30000000e+01 
611.221  8.30000000e+01 
611.185  7.90000000e+01 
611.149  7.30000000e+01 
611.113  8.00000000e+01 
611.077  7.50000000e+01 
611.041  6.90000000e+01 
611.005  8.20000000e+01 
610.970  8.20000000e+01 
610.934  7.40000000e+01 
610.898  8.10000000e+01 
610.862  7.30000000e+01 
610.826  7.20000000e+01 
610.790  7.90000000e+01 
610.754  6.20000000e+01 
610.718  7.30000000e+01 
610.682  8.70000000e+01 
610.646  7.60000000e+01 
610.610  7.90000000e+01 
610.574  8.00000000e+01 
610.538  6.70000000e+01 
610.502  8.50000000e+01 
610.466  8.60000000e+01 
610.430  8.40000000e+01 
610.395  6.90000000e+01 
610.359  8.60000000e+01 
610.323  9.10000000e+01 
610.287  8.00000000e+01 
610.251  8.90000000e+01 
610.215  7.90000000e+01 
610.179  8.70000000e+01 
610.143  9.90000000e+01 
610.107  7.30000000e+01 
610.071  7.70000000e+01 
610.035  6.90000000e+01 
609.999  8.90000000e+01 
609.963  8.30000000e+01 
609.927  8.60000000e+01 
609.891  9.30000000e+01 
609.855  9.10000000e+01 
609.820  7.40000000e+01 
609.784  7.90000000e+01 
609.748  8.10000000e+01 
609.712  7.10000000e+01 
609.676  8.40000000e+01 
609.640  8.80000000e+01 
609.604  8.40000000e+01 
609.568  7.80000000e+01 
609.532  6.70000000e+01 
609.496  7.20000000e+01 
609.460  9.30000000e+01 
609.424  9.00000000e+01 
609.388  9.40000000e+01 
609.352  6.80000000e+01 
609.316  9.70000000e+01 
609.280  8.10000000e+01 
609.245  7.20000000e+01 
609.209  7.20000000e+01 
609.173  7.20000000e+01 
609.137  9.00000000e+01 
609.101  8.50000000e+01 
609.065  7.30000000e+01 
609.029  8.80000000e+01 
608.993  7.40000000e+01 
608.957  9.00000000e+01 
608.921  8.30000000e+01 
608.885  6.90000000e+01 
608.849  8.90000000e+01 
608.813  7.40000000e+01 
608.777  8.50000000e+01 
608.741  7.40000000e+01 
608.705  8.70000000e+01 
608.670  8.10000000e+01 
608.634  7.40000000e+01 
608.598  8.10000000e+01 
608.562  7.70000000e+01 
608.526  9.20000000e+01 
608.490  8.60000000e+01 
608.454  9.10000000e+01 
608.418  7.10000000e+01 
608.382  8.10000000e+01 
608.346  7.50000000e+01 
608.310  8.10000000e+01 
608.274  8.10000000e+01 
608.238  8.50000000e+01 
608.202  7.80000000e+01 
608.166  8.80000000e+01 
608.130  7.60000000e+01 
608.095  8.30000000e+01 
608.059  7.20000000e+01 
608.023  7.00000000e+01 
607.987  7.70000000e+01 
607.951  9.00000000e+01 
607.915  7.70000000e+01 
607.879  6.10000000e+01 
607.843  9.40000000e+01 
607.807  5.70000000e+01 
607.771  7.90000000e+01 
607.735  6.70000000e+01 
607.699  8.50000000e+01 
607.663  8.00000000e+01 
607.627  7.10000000e+01 
607.591  9.90000000e+01 
607.555  8.00000000e+01 
607.520  8.00000000e+01 
607.484  8.50000000e+01 
607.448  8.20000000e+01 
607.412  7.90000000e+01 
607.376  8.30000000e+01 
607.340  1.12000000e+02 
607.304  8.10000000e+01 
607.268  7.90000000e+01 
607.232  8.40000000e+01 
607.196  8.40000000e+01 
607.160  8.10000000e+01 
607.124  7.80000000e+01 
607.088  7.70000000e+01 
607.052  8.90000000e+01 
607.016  8.50000000e+01 
606.980  9.80000000e+01 
606.945  8.20000000e+01 
606.909  7.60000000e+01 
606.873  8.90000000e+01 
606.837  9.70000000e+01 
606.801  8.50000000e+01 
606.765  6.50000000e+01 
606.729  8.30000000e+01 
606.693  8.10000000e+01 
606.657  6.80000000e+01 
606.621  8.10000000e+01 
606.585  7.10000000e+01 
606.549  9.10000000e+01 
606.513  8.00000000e+01 
606.477  8.70000000e+01 
606.441  7.00000000e+01 
606.405  8.50000000e+01 
606.370  8.80000000e+01 
606.334  9.00000000e+01 
606.298  9.70000000e+01 
606.262  7.10000000e+01 
606.226  7.50000000e+01 
606.190  6.90000000e+01 
606.154  1.15000000e+02 
606.118  1.06000000e+02 
606.082  8.20000000e+01 
606.046  8.60000000e+01 
606.010  9.00000000e+01 
605.974  7.80000000e+01 
605.938  9.60000000e+01 
605.902  8.30000000e+01 
605.866  7.80000000e+01 
605.830  7.50000000e+01 
605.795  9.30000000e+01 
605.759  8.60000000e+01 
605.723  9.00000000e+01 
605.687  8.70000000e+01 
605.651  9.30000000e+01 
605.615  7.40000000e+01 
605.579  9.30000000e+01 
605.543  8.50000000e+01 
605.507  8.60000000e+01 
605.471  8.90000000e+01 
605.435  8.50000000e+01 
605.399  1.03000000e+02 
605.363  8.90000000e+01 
605.327  7.90000000e+01 
605.291  8.50000000e+01 
605.255  9.90000000e+01 
605.220  8.80000000e+01 
605.184  9.40000000e+01 
605.148  8.30000000e+01 
605.112  8.40000000e+01 
605.076  8.70000000e+01 
605.040  8.50000000e+01 
605.004  8.40000000e+01 
604.968  7.50000000e+01 
604.932  8.80000000e+01 
604.896  8.20000000e+01 
604.860  8.30000000e+01 
604.824  7.10000000e+01 
604.788  7.60000000e+01 
604.752  7.50000000e+01 
604.716  8.60000000e+01 
604.680  9.30000000e+01 
604.645  7.20000000e+01 
604.609  8.30000000e+01 
604.573  6.50000000e+01 
604.537  6.30000000e+01 
604.501  9.20000000e+01 
604.465  9.10000000e+01 
604.429  8.30000000e+01 
604.393  7.30000000e+01 
604.357  6.80000000e+01 
604.321  9.10000000e+01 
604.285  7.70000000e+01 
604.249  8.20000000e+01 
604.213  8.70000000e+01 
604.177  8.60000000e+01 
604.141  7.90000000e+01 
604.105  6.60000000e+01 
604.070  7.90000000e+01 
604.034  7.60000000e+01 
603.998  8.40000000e+01 
603.962  6.30000000e+01 
603.926  8.10000000e+01 
603.890  9.70000000e+01 
603.854  8.20000000e+01 
603.818  7.30000000e+01 
603.782  6.80000000e+01 
603.746  1.01000000e+02 
603.710  6.30000000e+01 
603.674  7.80000000e+01 
603.638  8.00000000e+01 
603.602  1.02000000e+02 
603.566  9.20000000e+01 
603.530  9.40000000e+01 
603.495  7.80000000e+01 
603.459  8.60000000e+01 
603.423  8.20000000e+01 
603.387  8.00000000e+01 
603.351  8.40000000e+01 
603.315  7.30000000e+01 
603.279  8.40000000e+01 
603.243  7.60000000e+01 
603.207  9.10000000e+01 
603.171  7.80000000e+01 
603.135  7.10000000e+01 
603.099  9.20000000e+01 
603.063  9.10000000e+01 
603.027  6.80000000e+01 
602.991  6.70000000e+01 
602.955  8.90000000e+01 
602.920  8.10000000e+01 
602.884  8.10000000e+01 
602.848  8.00000000e+01 
602.812  6.70000000e+01 
602.776  8.70000000e+01 
602.740  7.50000000e+01 
602.704  9.10000000e+01 
602.668  7.80000000e+01 
602.632  7.20000000e+01 
602.596  8.00000000e+01 
602.560  7.30000000e+01 
602.524  9.40000000e+01 
602.488  1.00000000e+02 
602.452  7.50000000e+01 
602.416  8.40000000e+01 
602.380  1.00000000e+02 
602.345  9.60000000e+01 
602.309  9.00000000e+01 
602.273  9.30000000e+01 
602.237  8.80000000e+01 
602.201  8.30000000e+01 
602.165  8.60000000e+01 
602.129  9.50000000e+01 
602.093  9.20000000e+01 
602.057  8.10000000e+01 
602.021  8.50000000e+01 
601.985  1.03000000e+02 
601.949  8.30000000e+01 
601.913  8.50000000e+01 
601.877  8.00000000e+01 
601.841  8.10000000e+01 
601.805  7.80000000e+01 
601.770  7.60000000e+01 
601.734  9.60000000e+01 
601.698  6.90000000e+01 
601.662  8.60000000e+01 
601.626  1.00000000e+02 
601.590  7.00000000e+01 
601.554  6.80000000e+01 
601.518  8.20000000e+01 
601.482  8.50000000e+01 
601.446  6.80000000e+01 
601.410  8.80000000e+01 
601.374  9.20000000e+01 
601.338  8.00000000e+01 
601.302  8.50000000e+01 
601.266  7.40000000e+01 
601.230  7.60000000e+01 
601.195  6.80000000e+01 
601.159  6.60000000e+01 
601.123  8.70000000e+01 
601.087  7.60000000e+01 
601.051  7.90000000e+01 
601.015  8.10000000e+01 
600.979  7.90000000e+01 
600.943  9.50000000e+01 
600.907  7.10000000e+01 
600.871  7.40000000e+01 
600.835  9.40000000e+01 
600.799  9.50000000e+01 
600.763  8.50000000e+01 
600.727  1.00000000e+02 
600.691  1.01000000e+02 
600.655  7.50000000e+01 
600.620  8.60000000e+01 
600.584  9.30000000e+01 
600.548  8.00000000e+01 
600.512  8.00000000e+01 
600.476  8.40000000e+01 
600.440  9.50000000e+01 
600.404  7.70000000e+01 
600.368  8.00000000e+01 
600.332  9.10000000e+01 
600.296  9.50000000e+01 
600.260  9.60000000e+01 
600.224  8.30000000e+01 
600.188  8.70000000e+01 
600.152  9.60000000e+01 
600.116  8.00000000e+01 
600.080  9.00000000e+01 
600.045  7.20000000e+01 
600.009  9.70000000e+01 
599.973  9.00000000e+01 
599.937  7.50000000e+01 
599.901  7.30000000e+01 
599.865  9.00000000e+01 
599.829  8.50000000e+01 
599.793  9.80000000e+01 
599.757  9.00000000e+01 
599.721  8.60000000e+01 
599.685  8.00000000e+01 
599.649  8.60000000e+01 
599.613  8.00000000e+01 
599.577  8.70000000e+01 
599.541  7.50000000e+01 
599.505  7.90000000e+01 
599.470  8.40000000e+01 
599.434  7.10000000e+01 
599.398  9.60000000e+01 
599.362  8.60000000e+01 
599.326  7.30000000e+01 
599.290  7.50000000e+01 
599.254  8.10000000e+01 
599.218  7.40000000e+01 
599.182  7.70000000e+01 
599.146  8.00000000e+01 
599.110  8.70000000e+01 
599.074  8.10000000e+01 
599.038  8.50000000e+01 
599.002  7.80000000e+01 
598.966  7.10000000e+01 
598.930  8.70000000e+01 
598.895  8.70000000e+01 
598.859  8.50000000e+01 
598.823  8.30000000e+01 
598.787  7.90000000e+01 
598.751  9.90000000e+01 
598.715  7.90000000e+01 
598.679  7.70000000e+01 
598.643  9.10000000e+01 
598.607  7.90000000e+01 
598.571  6.80000000e+01 
598.535  7.60000000e+01 
598.499  8.10000000e+01 
598.463  8.40000000e+01 
598.427  9.80000000e+01 
598.391  8.50000000e+01 
598.355  6.50000000e+01 
598.320  6.90000000e+01 
598.284  8.60000000e+01 
598.248  7.40000000e+01 
598.212  8.70000000e+01 
598.176  1.00000000e+02 
598.140  8.00000000e+01 
598.104  7.10000000e+01 
598.068  8.40000000e+01 
598.032  9.10000000e+01 
597.996  8.10000000e+01 
597.960  8.70000000e+01 
597.924  9.30000000e+01 
597.888  6.10000000e+01 
597.852  7.30000000e+01 
597.816  9.20000000e+01 
597.780  8.10000000e+01 
597.745  7.30000000e+01 
597.709  7.60000000e+01 
597.673  7.90000000e+01 
597.637  9.00000000e+01 
597.601  8.00000000e+01 
597.565  8.10000000e+01 
597.529  9.20000000e+01 
597.493  8.20000000e+01 
597.457  7.80000000e+01 
597.421  7.90000000e+01 
597.385  9.70000000e+01 
597.349  7.30000000e+01 
597.313  9.30000000e+01 
597.277  8.40000000e+01 
597.241  7.30000000e+01 
597.205  8.50000000e+01 
597.170  6.60000000e+01 
597.134  9.00000000e+01 
597.098  8.50000000e+01 
597.062  7.00000000e+01 
597.026  9.00000000e+01 
596.990  7.60000000e+01 
596.954  1.01000000e+02 
596.918  8.40000000e+01 
596.882  6.00000000e+01 
596.846  9.10000000e+01 
596.810  7.90000000e+01 
596.774  7.10000000e+01 
596.738  8.70000000e+01 
596.702  7.70000000e+01 
596.666  7.90000000e+01 
596.630  8.20000000e+01 
596.595  7.20000000e+01 
596.559  8.40000000e+01 
596.523  9.90000000e+01 
596.487  8.70000000e+01 
596.451  8.70000000e+01 
596.415  1.09000000e+02 
596.379  7.10000000e+01 
596.343  6.60000000e+01 
596.307  7.60000000e+01 
596.271  7.90000000e+01 
596.235  8.50000000e+01 
596.199  8.10000000e+01 
596.163  9.50000000e+01 
596.127  9.30000000e+01 
596.091  9.50000000e+01 
596.055  7.20000000e+01 
596.020  7.90000000e+01 
595.984  9.50000000e+01 
595.948  7.60000000e+01 
595.912  7.80000000e+01 
595.876  7.90000000e+01 
595.840  7.40000000e+01 
595.804  8.30000000e+01 
595.768  8.30000000e+01 
595.732  8.80000000e+01 
595.696  6.70000000e+01 
595.660  9.50000000e+01 
595.624  8.90000000e+01 
595.588  8.00000000e+01 
595.552  9.60000000e+01 
595.516  7.80000000e+01 
595.480  7.50000000e+01 
595.445  8.10000000e+01 
595.409  8.10000000e+01 
595.373  6.80000000e+01 
595.337  7.70000000e+01 
595.301  8.80000000e+01 
595.265  7.40000000e+01 
595.229  7.70000000e+01 
595.193  9.20000000e+01 
595.157  8.40000000e+01 
595.121  9.90000000e+01 
595.085  8.30000000e+01 
595.049  7.20000000e+01 
595.013  7.90000000e+01 
594.977  9.30000000e+01 
594.941  7.80000000e+01 
594.905  6.30000000e+01 
594.870  9.10000000e+01 
594.834  7.20000000e+01 
594.798  8.20000000e+01 
594.762  8.60000000e+01 
594.726  7.80000000e+01 
594.690  9.10000000e+01 
594.654  8.20000000e+01 
594.618  7.40000000e+01 
594.582  7.50000000e+01 
594.546  8.10000000e+01 
594.510  8.10000000e+01 
594.474  7.00000000e+01 
594.438  8.40000000e+01 
594.402  8.90000000e+01 
594.366  8.30000000e+01 
594.330  7.40000000e+01 
594.295  9.30000000e+01 
594.259  7.20000000e+01 
594.223  7.00000000e+01 
594.187  8.70000000e+01 
594.151  8.60000000e+01 
594.115  8.50000000e+01 
594.079  6.60000000e+01 
594.043  8.90000000e+01 
594.007  9.00000000e+01 
593.971  9.50000000e+01 
593.935  8.60000000e+01 
593.899  7.00000000e+01 
593.863  1.23000000e+02 
593.827  9.20000000e+01 
593.791  8.60000000e+01 
593.755  8.20000000e+01 
593.720  9.40000000e+01 
593.684  9.70000000e+01 
593.648  7.90000000e+01 
593.612  6.40000000e+01 
593.576  9.50000000e+01 
593.540  8.60000000e+01 
593.504  1.04000000e+02 
593.468  9.10000000e+01 
593.432  8.40000000e+01 
593.396  7.70000000e+01 
593.360  7.60000000e+01 
593.324  6.30000000e+01 
593.288  1.03000000e+02 
593.252  8.00000000e+01 
593.216  8.20000000e+01 
593.180  9.70000000e+01 
593.145  8.40000000e+01 
593.109  8.70000000e+01 
593.073  7.70000000e+01 
593.037  8.90000000e+01 
593.001  8.50000000e+01 
592.965  7.20000000e+01 
592.929  8.90000000e+01 
592.893  7.50000000e+01 
592.857  6.40000000e+01 
592.821  7.70000000e+01 
592.785  1.02000000e+02 
592.749  1.05000000e+02 
592.713  6.40000000e+01 
592.677  8.50000000e+01 
592.641  8.20000000e+01 
592.605  6.20000000e+01 
592.570  8.00000000e+01 
592.534  8.60000000e+01 
592.498  1.04000000e+02 
592.462  9.20000000e+01 
592.426  8.60000000e+01 
592.390  7.50000000e+01 
592.354  7.80000000e+01 
592.318  8.20000000e+01 
592.282  8.20000000e+01 
592.246  1.00000000e+02 
592.210  7.60000000e+01 
592.174  1.02000000e+02 
592.138  8.10000000e+01 
592.102  8.50000000e+01 
592.066  9.40000000e+01 
592.030  7.00000000e+01 
591.995  7.80000000e+01 
591.959  9.10000000e+01 
591.923  8.90000000e+01 
591.887  8.20000000e+01 
591.851  7.00000000e+01 
591.815  6.90000000e+01 
591.779  7.60000000e+01 
591.743  8.40000000e+01 
591.707  5.90000000e+01 
591.671  8.40000000e+01 
591.635  8.80000000e+01 
591.599  9.00000000e+01 
591.563  9.20000000e+01 
591.527  7.80000000e+01 
591.491  7.50000000e+01 
591.455  7.80000000e+01 
591.420  9.30000000e+01 
591.384  7.50000000e+01 
591.348  8.20000000e+01 
591.312  7.10000000e+01 
591.276  9.00000000e+01 
591.240  8.40000000e+01 
591.204  9.10000000e+01 
591.168  9.40000000e+01 
591.132  8.30000000e+01 
591.096  9.10000000e+01 
591.060  8.60000000e+01 
591.024  9.80000000e+01 
590.988  8.90000000e+01 
590.952  8.40000000e+01 
590.916  9.50000000e+01 
590.880  9.50000000e+01 
590.845  7.80000000e+01 
590.809  7.70000000e+01 
590.773  9.10000000e+01 
590.737  8.50000000e+01 
590.701  8.30000000e+01 
590.665  7.60000000e+01 
590.629  8.00000000e+01 
590.593  8.20000000e+01 
590.557  9.40000000e+01 
590.521  8.60000000e+01 
590.485  1.02000000e+02 
590.449  8.00000000e+01 
590.413  8.30000000e+01 
590.377  8.00000000e+01 
590.341  9.10000000e+01 
590.305  8.50000000e+01 
590.270  9.20000000e+01 
590.234  7.90000000e+01 
590.198  7.30000000e+01 
590.162  8.60000000e+01 
590.126  9.00000000e+01 
590.090  7.10000000e+01 
590.054  7.80000000e+01 
590.018  9.10000000e+01 
589.982  7.40000000e+01 
589.946  7.90000000e+01 
589.910  9.60000000e+01 
589.874  8.40000000e+01 
589.838  9.50000000e+01 
589.802  8.10000000e+01 
589.766  8.20000000e+01 
589.730  7.90000000e+01 
589.695  8.20000000e+01 
589.659  9.10000000e+01 
589.623  9.60000000e+01 
589.587  9.00000000e+01 
589.551  9.20000000e+01 
589.515  1.01000000e+02 
589.479  7.70000000e+01 
589.443  8.70000000e+01 
589.407  8.80000000e+01 
589.371  7.70000000e+01 
589.335  9.80000000e+01 
589.299  9.40000000e+01 
589.263  9.90000000e+01 
589.227  7.20000000e+01 
589.191  8.40000000e+01 
589.155  8.60000000e+01 
589.120  1.03000000e+02 
589.084  9.30000000e+01 
589.048  6.40000000e+01 
589.012  8.50000000e+01 
588.976  8.50000000e+01 
588.940  1.04000000e+02 
588.904  7.50000000e+01 
588.868  7.60000000e+01 
588.832  8.70000000e+01 
588.796  1.00000000e+02 
588.760  7.10000000e+01 
588.724  6.80000000e+01 
588.688  1.12000000e+02 
588.652  7.60000000e+01 
588.616  9.30000000e+01 
588.580  7.20000000e+01 
588.545  8.80000000e+01 
588.509  9.30000000e+01 
588.473  7.90000000e+01 
588.437  7.30000000e+01 
588.401  7.70000000e+01 
588.365  7.90000000e+01 
588.329  8.80000000e+01 
588.293  7.60000000e+01 
588.257  7.80000000e+01 
588.221  1.03000000e+02 
588.185  8.40000000e+01 
588.149  9.00000000e+01 
588.113  6.00000000e+01 
588.077  8.20000000e+01 
588.041  7.30000000e+01 
588.005  9.50000000e+01 
587.970  9.50000000e+01 
587.934  9.20000000e+01 
587.898  7.70000000e+01 
587.862  9.00000000e+01 
587.826  8.00000000e+01 
587.790  9.30000000e+01 
587.754  8.30000000e+01 
587.718  8.40000000e+01 
587.682  8.10000000e+01 
587.646  7.90000000e+01 
587.610  7.90000000e+01 
587.574  8.70000000e+01 
587.538  9.30000000e+01 
587.502  8.20000000e+01 
587.466  7.90000000e+01 
587.430  8.40000000e+01 
587.395  7.60000000e+01 
587.359  8.20000000e+01 
587.323  9.50000000e+01 
587.287  7.20000000e+01 
587.251  8.60000000e+01 
587.215  9.10000000e+01 
587.179  9.10000000e+01 
587.143  8.50000000e+01 
587.107  9.50000000e+01 
587.071  8.10000000e+01 
587.035  8.70000000e+01 
586.999  8.10000000e+01 
586.963  8.40000000e+01 
586.927  8.30000000e+01 
586.891  8.90000000e+01 
586.855  9.20000000e+01 
586.820  9.80000000e+01 
586.784  1.01000000e+02 
586.748  9.20000000e+01 
586.712  7.60000000e+01 
586.676  7.30000000e+01 
586.640  7.40000000e+01 
586.604  8.60000000e+01 
586.568  9.00000000e+01 
586.532  6.80000000e+01 
586.496  1.11000000e+02 
586.460  1.00000000e+02 
586.424  7.60000000e+01 
586.388  8.30000000e+01 
586.352  7.60000000e+01 
586.316  7.00000000e+01 
586.280  8.10000000e+01 
586.245  8.50000000e+01 
586.209  7.80000000e+01 
586.173  7.00000000e+01 
586.137  8.70000000e+01 
586.101  8.90000000e+01 
586.065  8.20000000e+01 
586.029  7.90000000e+01 
585.993  8.20000000e+01 
585.957  8.30000000e+01 
585.921  8.20000000e+01 
585.885  8.70000000e+01 
585.849  7.50000000e+01 
585.813  9.00000000e+01 
585.777  7.40000000e+01 
585.741  9.20000000e+01 
585.705  7.80000000e+01 
585.670  9.50000000e+01 
585.634  6.90000000e+01 
585.598  7.70000000e+01 
585.562  9.90000000e+01 
585.526  8.60000000e+01 
585.490  9.40000000e+01 
585.454  7.80000000e+01 
585.418  9.60000000e+01 
585.382  7.90000000e+01 
585.346  1.02000000e+02 
585.310  8.60000000e+01 
585.274  7.70000000e+01 
585.238  9.10000000e+01 
585.202  8.10000000e+01 
585.166  6.90000000e+01 
585.130  8.50000000e+01 
585.095  6.90000000e+01 
585.059  7.70000000e+01 
585.023  8.50000000e+01 
584.987  6.90000000e+01 
584.951  7.90000000e+01 
584.915  9.80000000e+01 
584.879  8.80000000e+01 
584.843  7.40000000e+01 
584.807  8.40000000e+01 
584.771  7.80000000e+01 
584.735  8.10000000e+01 
584.699  8.10000000e+01 
584.663  8.50000000e+01 
584.627  8.90000000e+01 
584.591  7.90000000e+01 
584.555  7.90000000e+01 
584.520  8.10000000e+01 
584.484  8.30000000e+01 
584.448  7.50000000e+01 
584.412  8.80000000e+01 
584.376  9.80000000e+01 
584.340  9.00000000e+01 
584.304  8.60000000e+01 
584.268  8.40000000e+01 
584.232  7.00000000e+01 
584.196  7.80000000e+01 
584.160  8.70000000e+01 
584.124  8.20000000e+01 
584.088  9.00000000e+01 
584.052  8.30000000e+01 
584.016  1.00000000e+02 
583.980  9.90000000e+01 
583.945  8.90000000e+01 
583.909  8.60000000e+01 
583.873  7.60000000e+01 
583.837  8.50000000e+01 
583.801  8.30000000e+01 
583.765  8.60000000e+01 
583.729  7.80000000e+01 
583.693  8.10000000e+01 
583.657  8.50000000e+01 
583.621  9.00000000e+01 
583.585  8.00000000e+01 
583.549  9.30000000e+01 
583.513  8.00000000e+01 
583.477  9.00000000e+01 
583.441  9.70000000e+01 
583.405  8.60000000e+01 
583.370  6.80000000e+01 
583.334  8.70000000e+01 
583.298  6.20000000e+01 
583.262  7.80000000e+01 
583.226  9.40000000e+01 
583.190  9.10000000e+01 
583.154  8.00000000e+01 
583.118  7.50000000e+01 
583.082  8.30000000e+01 
583.046  8.70000000e+01 
583.010  9.20000000e+01 
582.974  7.50000000e+01 
582.938  9.50000000e+01 
582.902  9.30000000e+01 
582.866  7.80000000e+01 
582.830  8.90000000e+01 
582.795  8.10000000e+01 
582.759  7.70000000e+01 
582.723  8.80000000e+01 
582.687  7.80000000e+01 
582.651  7.10000000e+01 
582.615  9.30000000e+01 
582.579  8.60000000e+01 
582.543  7.40000000e+01 
582.507  9.80000000e+01 
582.471  8.30000000e+01 
582.435  9.30000000e+01 
582.399  7.50000000e+01 
582.363  8.10000000e+01 
582.327  7.50000000e+01 
582.291  8.00000000e+01 
582.255  8.30000000e+01 
582.220  8.10000000e+01 
582.184  8.10000000e+01 
582.148  8.60000000e+01 
582.112  8.70000000e+01 
582.076  8.40000000e+01 
582.040  8.70000000e+01 
582.004  8.40000000e+01 
581.968  9.70000000e+01 
581.932  9.30000000e+01 
581.896  9.70000000e+01 
581.860  7.90000000e+01 
581.824  8.80000000e+01 
581.788  9.30000000e+01 
581.752  8.60000000e+01 
581.716  6.40000000e+01 
581.680  6.90000000e+01 
581.645  9.10000000e+01 
581.609  8.70000000e+01 
581.573  9.10000000e+01 
581.537  8.80000000e+01 
581.501  7.50000000e+01 
581.465  8.90000000e+01 
581.429  8.20000000e+01 
581.393  7.70000000e+01 
581.357  7.30000000e+01 
581.321  9.00000000e+01 
581.285  8.70000000e+01 
581.249  8.50000000e+01 
581.213  8.60000000e+01 
581.177  9.70000000e+01 
581.141  8.10000000e+01 
581.105  1.00000000e+02 
581.070  8.10000000e+01 
581.034  9.40000000e+01 
580.998  9.60000000e+01 
580.962  7.50000000e+01 
580.926  9.00000000e+01 
580.890  9.40000000e+01 
580.854  8.40000000e+01 
580.818  7.80000000e+01 
580.782  8.90000000e+01 
580.746  8.70000000e+01 
580.710  9.10000000e+01 
580.674  8.70000000e+01 
580.638  7.10000000e+01 
580.602  7.90000000e+01 
580.566  8.20000000e+01 
580.530  7.20000000e+01 
580.495  8.50000000e+01 
580.459  7.60000000e+01 
580.423  9.70000000e+01 
580.387  8.10000000e+01 
580.351  8.40000000e+01 
580.315  7.40000000e+01 
580.279  9.00000000e+01 
580.243  9.30000000e+01 
580.207  7.40000000e+01 
580.171  8.90000000e+01 
580.135  8.00000000e+01 
580.099  9.40000000e+01 
580.063  8.30000000e+01 
580.027  8.10000000e+01 
579.991  8.20000000e+01 
579.955  8.80000000e+01 
579.920  1.01000000e+02 
579.884  8.30000000e+01 
579.848  9.60000000e+01 
579.812  8.90000000e+01 
579.776  1.00000000e+02 
579.740  7.10000000e+01 
579.704  8.80000000e+01 
579.668  7.70000000e+01 
579.632  9.70000000e+01 
579.596  9.70000000e+01 
579.560  7.40000000e+01 
579.524  8.00000000e+01 
579.488  8.50000000e+01 
579.452  8.30000000e+01 
579.416  7.40000000e+01 
579.380  9.40000000e+01 
579.345  8.80000000e+01 
579.309  8.70000000e+01 
579.273  8.90000000e+01 
579.237  7.60000000e+01 
579.201  1.01000000e+02 
579.165  9.10000000e+01 
579.129  9.60000000e+01 
579.093  7.70000000e+01 
579.057  8.80000000e+01 
579.021  9.30000000e+01 
578.985  8.00000000e+01 
578.949  7.70000000e+01 
578.913  8.10000000e+01 
578.877  7.40000000e+01 
578.841  8.10000000e+01 
578.805  8.30000000e+01 
578.770  7.60000000e+01 
578.734  6.60000000e+01 
578.698  9.10000000e+01 
578.662  8.00000000e+01 
578.626  9.10000000e+01 
578.590  6.70000000e+01 
578.554  7.30000000e+01 
578.518  9.10000000e+01 
578.482  7.50000000e+01 
578.446  9.00000000e+01 
578.410  9.50000000e+01 
578.374  8.20000000e+01 
578.338  8.30000000e+01 
578.302  9.30000000e+01 
578.266  9.00000000e+01 
578.230  7.10000000e+01 
578.195  9.30000000e+01 
578.159  9.50000000e+01 
578.123  8.70000000e+01 
578.087  9.00000000e+01 
578.051  1.00000000e+02 
578.015  1.00000000e+02 
577.979  7.30000000e+01 
577.943  7.20000000e+01 
577.907  9.00000000e+01 
577.871  8.90000000e+01 
577.835  8.00000000e+01 
577.799  8.80000000e+01 
577.763  8.40000000e+01 
577.727  8.60000000e+01 
577.691  9.00000000e+01 
577.655  8.70000000e+01 
577.620  9.10000000e+01 
577.584  7.40000000e+01 
577.548  7.90000000e+01 
577.512  8.80000000e+01 
577.476  8.50000000e+01 
577.440  8.60000000e+01 
577.404  9.60000000e+01 
577.368  9.70000000e+01 
577.332  7.50000000e+01 
577.296  9.00000000e+01 
577.260  8.40000000e+01 
577.224  7.10000000e+01 
577.188  7.70000000e+01 
577.152  8.30000000e+01 
577.116  8.30000000e+01 
577.080  9.30000000e+01 
577.045  9.70000000e+01 
577.009  7.60000000e+01 
576.973  8.20000000e+01 
576.937  9.30000000e+01 
576.901  8.10000000e+01 
576.865  7.70000000e+01 
576.829  8.40000000e+01 
576.793  9.70000000e+01 
576.757  7.60000000e+01 
576.721  7.60000000e+01 
576.685  6.50000000e+01 
576.649  9.30000000e+01 
576.613  8.10000000e+01 
576.577  8.30000000e+01 
576.541  7.70000000e+01 
576.505  9.90000000e+01 
576.470  7.40000000e+01 
576.434  8.80000000e+01 
576.398  7.00000000e+01 
576.362  7.50000000e+01 
576.326  8.70000000e+01 
576.290  8.50000000e+01 
576.254  8.10000000e+01 
576.218  9.00000000e+01 
576.182  6.20000000e+01 
576.146  7.10000000e+01 
576.110  7.60000000e+01 
576.074  9.20000000e+01 
576.038  9.20000000e+01 
576.002  7.20000000e+01 
575.966  8.20000000e+01 
575.930  1.06000000e+02 
575.895  9.70000000e+01 
575.859  7.30000000e+01 
575.823  7.40000000e+01 
575.787  8.30000000e+01 
575.751  8.20000000e+01 
575.715  6.50000000e+01 
575.679  8.20000000e+01 
575.643  9.00000000e+01 
575.607  7.80000000e+01 
575.571  6.40000000e+01 
575.535  7.70000000e+01 
575.499  8.60000000e+01 
575.463  7.70000000e+01 
575.427  9.40000000e+01 
575.391  8.60000000e+01 
575.355  8.60000000e+01 
575.320  6.10000000e+01 
575.284  8.30000000e+01 
575.248  7.60000000e+01 
575.212  7.90000000e+01 
575.176  8.10000000e+01 
575.140  6.70000000e+01 
575.104  8.60000000e+01 
575.068  9.10000000e+01 
575.032  1.03000000e+02 
574.996  9.10000000e+01 
574.960  7.50000000e+01 
574.924  8.20000000e+01 
574.888  8.90000000e+01 
574.852  7.80000000e+01 
574.816  8.90000000e+01 
574.780  9.80000000e+01 
574.745  9.10000000e+01 
574.709  8.60000000e+01 
574.673  7.30000000e+01 
574.637  7.40000000e+01 
574.601  9.20000000e+01 
574.565  8.00000000e+01 
574.529  8.00000000e+01 
574.493  8.90000000e+01 
574.457  8.70000000e+01 
574.421  6.30000000e+01 
574.385  7.80000000e+01 
574.349  7.70000000e+01 
574.313  8.50000000e+01 
574.277  9.10000000e+01 
574.241  8.70000000e+01 
574.205  7.40000000e+01 
574.170  8.60000000e+01 
574.134  8.50000000e+01 
574.098  8.80000000e+01 
574.062  9.20000000e+01 
574.026  8.70000000e+01 
573.990  7.70000000e+01 
573.954  9.70000000e+01 
573.918  7.50000000e+01 
573.882  8.90000000e+01 
573.846  8.60000000e+01 
573.810  8.30000000e+01 
573.774  7.80000000e+01 
573.738  8.60000000e+01 
573.702  7.20000000e+01 
573.666  7.60000000e+01 
573.630  9.10000000e+01 
573.595  7.40000000e+01 
573.559  9.20000000e+01 
573.523  8.60000000e+01 
573.487  1.02000000e+02 
573.451  7.40000000e+01 
573.415  7.00000000e+01 
573.379  7.90000000e+01 
573.343  8.60000000e+01 
573.307  8.30000000e+01 
573.271  8.50000000e+01 
573.235  6.30000000e+01 
573.199  6.50000000e+01 
573.163  6.50000000e+01 
573.127  7.70000000e+01 
573.091  7.20000000e+01 
573.055  7.60000000e+01 
573.020  8.30000000e+01 
572.984  9.00000000e+01 
572.948  8.20000000e+01 
572.912  7.30000000e+01 
572.876  8.80000000e+01 
572.840  8.50000000e+01 
572.804  9.50000000e+01 
572.768  7.10000000e+01 
572.732  8.20000000e+01 
572.696  9.50000000e+01 
572.660  8.00000000e+01 
572.624  8.40000000e+01 
572.588  7.60000000e+01 
572.552  9.20000000e+01 
572.516  8.80000000e+01 
572.480  8.60000000e+01 
572.445  8.60000000e+01 
572.409  7.30000000e+01 
572.373  7.80000000e+01 
572.337  6.70000000e+01 
572.301  7.90000000e+01 
572.265  8.00000000e+01 
572.229  8.00000000e+01 
572.193  7.90000000e+01 
572.157  1.02000000e+02 
572.121  9.10000000e+01 
572.085  8.70000000e+01 
572.049  7.10000000e+01 
572.013  7.20000000e+01 
571.977  8.50000000e+01 
571.941  1.11000000e+02 
571.905  8.60000000e+01 
571.870  7.50000000e+01 
571.834  7.70000000e+01 
571.798  8.50000000e+01 
571.762  6.20000000e+01 
571.726  8.70000000e+01 
571.690  6.60000000e+01 
571.654  8.00000000e+01 
571.618  7.70000000e+01 
571.582  7.20000000e+01 
571.546  7.80000000e+01 
571.510  8.70000000e+01 
571.474  7.90000000e+01 
571.438  8.40000000e+01 
571.402  8.30000000e+01 
571.366  9.20000000e+01 
571.330  8.40000000e+01 
571.295  7.70000000e+01 
571.259  8.30000000e+01 
571.223  8.10000000e+01 
571.187  8.30000000e+01 
571.151  7.40000000e+01 
571.115  7.00000000e+01 
571.079  9.10000000e+01 
571.043  6.90000000e+01 
571.007  7.20000000e+01 
570.971  7.00000000e+01 
570.935  8.00000000e+01 
570.899  8.20000000e+01 
570.863  6.80000000e+01 
570.827  1.02000000e+02 
570.791  9.10000000e+01 
570.755  8.50000000e+01 
570.720  8.30000000e+01 
570.684  7.90000000e+01 
570.648  7.80000000e+01 
570.612  8.20000000e+01 
570.576  7.10000000e+01 
570.540  7.20000000e+01 
570.504  8.00000000e+01 
570.468  8.20000000e+01 
570.432  7.70000000e+01 
570.396  6.70000000e+01 
570.360  9.60000000e+01 
570.324  9.40000000e+01 
570.288  8.60000000e+01 
570.252  8.30000000e+01 
570.216  1.01000000e+02 
570.180  6.70000000e+01 
570.145  9.30000000e+01 
570.109  8.80000000e+01 
570.073  7.90000000e+01 
570.037  9.20000000e+01 
570.001  6.10000000e+01 
569.965  8.00000000e+01 
569.929  8.40000000e+01 
569.893  8.00000000e+01 
569.857  7.80000000e+01 
569.821  8.50000000e+01 
569.785  8.30000000e+01 
569.749  7.40000000e+01 
569.713  8.00000000e+01 
569.677  8.50000000e+01 
569.641  8.10000000e+01 
569.605  7.00000000e+01 
569.570  8.20000000e+01 
569.534  6.60000000e+01 
569.498  8.00000000e+01 
569.462  8.50000000e+01 
569.426  1.00000000e+02 
569.390  8.80000000e+01 
569.354  7.20000000e+01 
569.318  9.00000000e+01 
569.282  8.60000000e+01 
569.246  1.03000000e+02 
569.210  7.80000000e+01 
569.174  8.50000000e+01 
569.138  7.80000000e+01 
569.102  8.50000000e+01 
569.066  9.80000000e+01 
569.030  8.20000000e+01 
568.995  9.10000000e+01 
568.959  7.60000000e+01 
568.923  8.70000000e+01 
568.887  7.50000000e+01 
568.851  8.80000000e+01 
568.815  9.20000000e+01 
568.779  8.40000000e+01 
568.743  7.50000000e+01 
568.707  7.70000000e+01 
568.671  8.00000000e+01 
568.635  7.70000000e+01 
568.599  7.60000000e+01 
568.563  8.30000000e+01 
568.527  7.60000000e+01 
568.491  7.70000000e+01 
568.455  8.10000000e+01 
568.420  8.90000000e+01 
568.384  9.10000000e+01 
568.348  9.20000000e+01 
568.312  8.60000000e+01 
568.276  8.10000000e+01 
568.240  8.50000000e+01 
568.204  8.10000000e+01 
568.168  7.10000000e+01 
568.132  9.50000000e+01 
568.096  7.90000000e+01 
568.060  9.30000000e+01 
568.024  8.20000000e+01 
567.988  7.80000000e+01 
567.952  8.30000000e+01 
567.916  7.50000000e+01 
567.880  7.30000000e+01 
567.845  8.00000000e+01 
567.809  8.40000000e+01 
567.773  9.30000000e+01 
567.737  9.00000000e+01 
567.701  7.30000000e+01 
567.665  9.30000000e+01 
567.629  8.50000000e+01 
567.593  1.04000000e+02 
567.557  9.10000000e+01 
567.521  7.70000000e+01 
567.485  9.20000000e+01 
567.449  9.50000000e+01 
567.413  7.90000000e+01 
567.377  8.40000000e+01 
567.341  7.00000000e+01 
567.305  9.10000000e+01 
567.270  9.90000000e+01 
567.234  8.50000000e+01 
567.198  8.30000000e+01 
567.162  8.80000000e+01 
567.126  9.60000000e+01 
567.090  7.00000000e+01 
567.054  7.80000000e+01 
567.018  7.30000000e+01 
566.982  9.50000000e+01 
566.946  8.00000000e+01 
566.910  9.50000000e+01 
566.874  8.70000000e+01 
566.838  7.30000000e+01 
566.802  9.30000000e+01 
566.766  8.40000000e+01 
566.730  8.10000000e+01 
566.695  8.90000000e+01 
566.659  7.30000000e+01 
566.623  8.60000000e+01 
566.587  9.20000000e+01 
566.551  7.60000000e+01 
566.515  8.70000000e+01 
566.479  9.40000000e+01 
566.443  8.60000000e+01 
566.407  9.20000000e+01 
566.371  9.10000000e+01 
566.335  9.20000000e+01 
566.299  7.40000000e+01 
566.263  9.30000000e+01 
566.227  9.20000000e+01 
566.191  7.50000000e+01 
566.155  6.80000000e+01 
566.120  8.90000000e+01 
566.084  6.10000000e+01 
566.048  7.80000000e+01 
566.012  9.00000000e+01 
565.976  9.10000000e+01 
565.940  7.90000000e+01 
565.904  7.40000000e+01 
565.868  8.60000000e+01 
565.832  6.50000000e+01 
565.796  8.00000000e+01 
565.760  9.60000000e+01 
565.724  8.60000000e+01 
565.688  7.90000000e+01 
565.652  7.90000000e+01 
565.616  6.90000000e+01 
565.580  8.20000000e+01 
565.545  7.80000000e+01 
565.509  6.50000000e+01 
565.473  5.90000000e+01 
565.437  7.80000000e+01 
565.401  8.50000000e+01 
565.365  9.60000000e+01 
565.329  8.70000000e+01 
565.293  6.90000000e+01 
565.257  8.80000000e+01 
565.221  8.70000000e+01 
565.185  8.00000000e+01 
565.149  7.30000000e+01 
565.113  8.10000000e+01 
565.077  8.40000000e+01 
565.041  9.10000000e+01 
565.005  9.10000000e+01 
564.970  1.03000000e+02 
564.934  8.90000000e+01 
564.898  8.50000000e+01 
564.862  7.10000000e+01 
564.826  8.90000000e+01 
564.790  6.70000000e+01 
564.754  8.80000000e+01 
564.718  8.30000000e+01 
564.682  7.90000000e+01 
564.646  8.40000000e+01 
564.610  8.40000000e+01 
564.574  9.70000000e+01 
564.538  7.50000000e+01 
564.502  8.40000000e+01 
564.466  1.01000000e+02 
564.430  1.00000000e+02 
564.395  9.50000000e+01 
564.359  8.90000000e+01 
564.323  9.80000000e+01 
564.287  7.30000000e+01 
564.251  7.60000000e+01 
564.215  8.00000000e+01 
564.179  7.40000000e+01 
564.143  1.00000000e+02 
564.107  9.70000000e+01 
564.071  8.20000000e+01 
564.035  7.60000000e+01 
563.999  7.40000000e+01 
563.963  8.50000000e+01 
563.927  8.90000000e+01 
563.891  7.50000000e+01 
563.855  9.60000000e+01 
563.820  8.40000000e+01 
563.784  8.40000000e+01 
563.748  7.70000000e+01 
563.712  8.70000000e+01 
563.676  5.90000000e+01 
563.640  9.00000000e+01 
563.604  7.80000000e+01 
563.568  8.00000000e+01 
563.532  9.00000000e+01 
563.496  7.10000000e+01 
563.460  9.00000000e+01 
563.424  1.04000000e+02 
563.388  5.90000000e+01 
563.352  8.20000000e+01 
563.316  8.90000000e+01 
563.280  7.60000000e+01 
563.245  8.20000000e+01 
563.209  7.80000000e+01 
563.173  7.00000000e+01 
563.137  9.40000000e+01 
563.101  9.40000000e+01 
563.065  9.30000000e+01 
563.029  7.40000000e+01 
562.993  8.90000000e+01 
562.957  7.40000000e+01 
562.921  7.40000000e+01 
562.885  8.60000000e+01 
562.849  8.70000000e+01 
562.813  8.60000000e+01 
562.777  1.02000000e+02 
562.741  9.70000000e+01 
562.705  9.30000000e+01 
562.670  9.40000000e+01 
562.634  8.50000000e+01 
562.598  8.30000000e+01 
562.562  9.20000000e+01 
562.526  7.40000000e+01 
562.490  8.30000000e+01 
562.454  8.30000000e+01 
562.418  6.60000000e+01 
562.382  9.10000000e+01 
562.346  7.60000000e+01 
562.310  7.70000000e+01 
562.274  9.10000000e+01 
562.238  7.10000000e+01 
562.202  9.50000000e+01 
562.166  6.70000000e+01 
562.130  6.80000000e+01 
562.095  8.90000000e+01 
562.059  7.20000000e+01 
562.023  8.30000000e+01 
561.987  7.80000000e+01 
561.951  8.80000000e+01 
561.915  7.80000000e+01 
561.879  8.10000000e+01 
561.843  7.50000000e+01 
561.807  7.90000000e+01 
561.771  9.40000000e+01 
561.735  8.40000000e+01 
561.699  5.70000000e+01 
561.663  9.30000000e+01 
561.627  9.60000000e+01 
561.591  9.40000000e+01 
561.555  7.00000000e+01 
561.520  8.00000000e+01 
561.484  9.20000000e+01 
561.448  8.70000000e+01 
561.412  8.40000000e+01 
561.376  8.10000000e+01 
561.340  1.06000000e+02 
561.304  8.60000000e+01 
561.268  6.70000000e+01 
561.232  8.00000000e+01 
561.196  8.50000000e+01 
561.160  9.50000000e+01 
561.124  9.10000000e+01 
561.088  1.03000000e+02 
561.052  8.50000000e+01 
561.016  9.10000000e+01 
560.980  8.40000000e+01 
560.945  8.80000000e+01 
560.909  9.30000000e+01 
560.873  9.20000000e+01 
560.837  8.40000000e+01 
560.801  8.90000000e+01 
560.765  8.60000000e+01 
560.729  8.20000000e+01 
560.693  7.60000000e+01 
560.657  8.10000000e+01 
560.621  7.90000000e+01 
560.585  9.20000000e+01 
560.549  1.06000000e+02 
560.513  8.70000000e+01 
560.477  1.05000000e+02 
560.441  8.60000000e+01 
560.405  9.20000000e+01 
560.370  9.70000000e+01 
560.334  8.80000000e+01 
560.298  8.40000000e+01 
560.262  1.08000000e+02 
560.226  8.80000000e+01 
560.190  1.08000000e+02 
560.154  7.90000000e+01 
560.118  8.40000000e+01 
560.082  8.80000000e+01 
560.046  9.70000000e+01 
560.010  7.10000000e+01 
559.974  7.00000000e+01 
559.938  8.00000000e+01 
559.902  9.70000000e+01 
559.866  1.15000000e+02 
559.830  7.80000000e+01 
559.795  8.00000000e+01 
559.759  9.50000000e+01 
559.723  1.07000000e+02 
559.687  1.02000000e+02 
559.651  7.30000000e+01 
559.615  8.30000000e+01 
559.579  7.60000000e+01 
559.543  9.40000000e+01 
559.507  1.03000000e+02 
559.471  9.10000000e+01 
559.435  1.03000000e+02 
559.399  8.50000000e+01 
559.363  9.60000000e+01 
559.327  7.20000000e+01 
559.291  8.50000000e+01 
559.255  8.10000000e+01 
559.220  7.60000000e+01 
559.184  8.20000000e+01 
559.148  7.50000000e+01 
559.112  7.90000000e+01 
559.076  1.01000000e+02 
559.040  9.20000000e+01 
559.004  8.50000000e+01 
558.968  9.70000000e+01 
558.932  1.00000000e+02 
558.896  9.90000000e+01 
558.860  6.90000000e+01 
558.824  9.90000000e+01 
558.788  8.30000000e+01 
558.752  8.10000000e+01 
558.716  1.06000000e+02 
558.680  9.10000000e+01 
558.645  9.10000000e+01 
558.609  8.30000000e+01 
558.573  8.50000000e+01 
558.537  9.40000000e+01 
558.501  8.00000000e+01 
558.465  7.10000000e+01 
558.429  9.20000000e+01 
558.393  9.80000000e+01 
558.357  7.70000000e+01 
558.321  8.50000000e+01 
558.285  8.10000000e+01 
558.249  9.50000000e+01 
558.213  8.00000000e+01 
558.177  8.40000000e+01 
558.141  8.50000000e+01 
558.105  8.80000000e+01 
558.070  8.00000000e+01 
558.034  9.00000000e+01 
557.998  1.05000000e+02 
557.962  8.00000000e+01 
557.926  9.30000000e+01 
557.890  9.10000000e+01 
557.854  1.06000000e+02 
557.818  8.20000000e+01 
557.782  8.10000000e+01 
557.746  8.00000000e+01 
557.710  9.10000000e+01 
557.674  1.03000000e+02 
557.638  8.00000000e+01 
557.602  9.00000000e+01 
557.566  1.01000000e+02 
557.530  8.80000000e+01 
557.495  7.40000000e+01 
557.459  8.40000000e+01 
557.423  8.20000000e+01 
557.387  9.10000000e+01 
557.351  8.90000000e+01 
557.315  9.60000000e+01 
557.279  1.01000000e+02 
557.243  7.80000000e+01 
557.207  9.00000000e+01 
557.171  8.90000000e+01 
557.135  9.20000000e+01 
557.099  9.30000000e+01 
557.063  7.90000000e+01 
557.027  8.80000000e+01 
556.991  8.90000000e+01 
556.955  1.07000000e+02 
556.920  7.40000000e+01 
556.884  8.10000000e+01 
556.848  7.00000000e+01 
556.812  8.50000000e+01 
556.776  7.30000000e+01 
556.740  9.70000000e+01 
556.704  8.30000000e+01 
556.668  9.40000000e+01 
556.632  7.90000000e+01 
556.596  7.00000000e+01 
556.560  9.30000000e+01 
556.524  8.90000000e+01 
556.488  8.40000000e+01 
556.452  8.70000000e+01 
556.416  8.40000000e+01 
556.380  8.90000000e+01 
556.345  8.50000000e+01 
556.309  9.00000000e+01 
556.273  8.50000000e+01 
556.237  9.80000000e+01 
556.201  1.02000000e+02 
556.165  9.60000000e+01 
556.129  8.20000000e+01 
556.093  9.20000000e+01 
556.057  9.70000000e+01 
556.021  7.50000000e+01 
555.985  8.50000000e+01 
555.949  9.10000000e+01 
555.913  8.10000000e+01 
555.877  9.30000000e+01 
555.841  9.70000000e+01 
555.805  7.60000000e+01 
555.770  9.20000000e+01 
555.734  7.20000000e+01 
555.698  7.20000000e+01 
555.662  7.90000000e+01 
555.626  8.20000000e+01 
555.590  7.80000000e+01 
555.554  8.40000000e+01 
555.518  7.60000000e+01 
555.482  9.40000000e+01 
555.446  9.80000000e+01 
555.410  7.80000000e+01 
555.374  8.00000000e+01 
555.338  9.10000000e+01 
555.302  8.40000000e+01 
555.266  7.40000000e+01 
555.230  8.80000000e+01 
555.195  7.50000000e+01 
555.159  8.40000000e+01 
555.123  9.20000000e+01 
555.087  8.60000000e+01 
555.051  6.90000000e+01 
555.015  6.40000000e+01 
554.979  9.20000000e+01 
554.943  8.40000000e+01 
554.907  7.40000000e+01 
554.871  8.10000000e+01 
554.835  8.60000000e+01 
554.799  8.50000000e+01 
554.763  8.40000000e+01 
554.727  1.02000000e+02 
554.691  7.80000000e+01 
554.655  8.50000000e+01 
554.620  7.90000000e+01 
554.584  7.50000000e+01 
554.548  7.50000000e+01 
554.512  6.80000000e+01 
554.476  8.50000000e+01 
554.440  7.50000000e+01 
554.404  8.10000000e+01 
554.368  7.00000000e+01 
554.332  9.40000000e+01 
554.296  7.90000000e+01 
554.260  9.40000000e+01 
554.224  7.60000000e+01 
554.188  7.60000000e+01 
554.152  7.60000000e+01 
554.116  9.10000000e+01 
554.080  8.60000000e+01 
554.045  6.60000000e+01 
554.009  7.60000000e+01 
553.973  8.90000000e+01 
553.937  8.00000000e+01 
553.901  8.00000000e+01 
553.865  8.30000000e+01 
553.829  8.80000000e+01 
553.793  7.80000000e+01 
553.757  9.80000000e+01 
553.721  9.10000000e+01 
553.685  8.10000000e+01 
553.649  7.10000000e+01 
553.613  7.30000000e+01 
553.577  8.20000000e+01 
553.541  7.00000000e+01 
553.505  8.40000000e+01 
553.470  7.90000000e+01 
553.434  6.40000000e+01 
553.398  8.50000000e+01 
553.362  6.40000000e+01 
553.326  9.60000000e+01 
553.290  7.70000000e+01 
553.254  6.70000000e+01 
553.218  7.90000000e+01 
553.182  8.10000000e+01 
553.146  7.10000000e+01 
553.110  6.70000000e+01 
553.074  8.50000000e+01 
553.038  9.30000000e+01 
553.002  7.80000000e+01 
552.966  9.60000000e+01 
552.930  8.00000000e+01 
552.895  7.60000000e+01 
552.859  7.50000000e+01 
552.823  7.60000000e+01 
552.787  8.90000000e+01 
552.751  8.00000000e+01 
552.715  8.70000000e+01 
552.679  7.80000000e+01 
552.643  9.30000000e+01 
552.607  6.60000000e+01 
552.571  6.50000000e+01 
552.535  8.60000000e+01 
552.499  8.00000000e+01 
552.463  8.40000000e+01 
552.427  5.60000000e+01 
552.391  7.70000000e+01 
552.355  9.40000000e+01 
552.320  9.10000000e+01 
552.284  7.50000000e+01 
552.248  7.30000000e+01 
552.212  9.30000000e+01 
552.176  8.90000000e+01 
552.140  7.50000000e+01 
552.104  9.70000000e+01 
552.068  8.30000000e+01 
552.032  6.50000000e+01 
551.996  7.00000000e+01 
551.960  8.00000000e+01 
551.924  5.90000000e+01 
551.888  8.10000000e+01 
551.852  8.90000000e+01 
551.816  6.30000000e+01 
551.780  8.40000000e+01 
551.745  8.20000000e+01 
551.709  6.40000000e+01 
551.673  7.80000000e+01 
551.637  9.20000000e+01 
551.601  8.50000000e+01 
551.565  6.80000000e+01 
551.529  6.70000000e+01 
551.493  8.20000000e+01 
551.457  7.40000000e+01 
551.421  6.80000000e+01 
551.385  7.70000000e+01 
551.349  8.10000000e+01 
551.313  6.30000000e+01 
551.277  7.90000000e+01 
551.241  8.40000000e+01 
551.205  8.20000000e+01 
551.170  7.70000000e+01 
551.134  6.40000000e+01 
551.098  8.70000000e+01 
551.062  8.20000000e+01 
551.026  8.00000000e+01 
550.990  8.40000000e+01 
550.954  8.30000000e+01 
550.918  7.30000000e+01 
550.882  9.10000000e+01 
550.846  9.60000000e+01 
550.810  8.30000000e+01 
550.774  7.80000000e+01 
550.738  7.30000000e+01 
550.702  7.70000000e+01 
550.666  6.30000000e+01 
550.630  6.60000000e+01 
550.595  7.70000000e+01 
550.559  8.90000000e+01 
550.523  7.60000000e+01 
550.487  7.20000000e+01 
550.451  8.10000000e+01 
550.415  7.20000000e+01 
550.379  7.90000000e+01 
550.343  6.40000000e+01 
550.307  7.90000000e+01 
550.271  7.50000000e+01 
550.235  8.00000000e+01 
550.199  8.30000000e+01 
550.163  8.60000000e+01 
550.127  7.10000000e+01 
550.091  6.80000000e+01 
550.055  8.60000000e+01 
550.020  8.10000000e+01 
549.984  7.50000000e+01 
549.948  7.90000000e+01 
549.912  9.10000000e+01 
549.876  8.00000000e+01 
549.840  7.20000000e+01 
549.804  7.20000000e+01 
549.768  6.50000000e+01 
549.732  9.40000000e+01 
549.696  8.90000000e+01 
549.660  8.40000000e+01 
549.624  9.50000000e+01 
549.588  7.20000000e+01 
549.552  8.30000000e+01 
549.516  8.40000000e+01 
549.480  7.50000000e+01 
549.445  7.40000000e+01 
549.409  7.50000000e+01 
549.373  5.90000000e+01 
549.337  5.80000000e+01 
549.301  7.10000000e+01 
549.265  7.00000000e+01 
549.229  7.40000000e+01 
549.193  8.30000000e+01 
549.157  8.90000000e+01 
549.121  7.40000000e+01 
549.085  7.50000000e+01 
549.049  7.00000000e+01 
549.013  7.60000000e+01 
548.977  6.70000000e+01 
548.941  7.00000000e+01 
548.905  6.90000000e+01 
548.870  7.90000000e+01 
548.834  7.20000000e+01 
548.798  7.40000000e+01 
548.762  7.00000000e+01 
548.726  7.60000000e+01 
548.690  7.20000000e+01 
548.654  7.00000000e+01 
548.618  8.10000000e+01 
548.582  6.20000000e+01 
548.546  7.00000000e+01 
548.510  8.70000000e+01 
548.474  7.70000000e+01 
548.438  7.00000000e+01 
548.402  7.30000000e+01 
548.366  6.30000000e+01 
548.330  6.60000000e+01 
548.295  7.10000000e+01 
548.259  5.50000000e+01 
548.223  8.10000000e+01 
548.187  7.10000000e+01 
548.151  8.50000000e+01 
548.115  7.70000000e+01 
548.079  6.40000000e+01 
548.043  7.60000000e+01 
548.007  5.50000000e+01 
547.971  9.30000000e+01 
547.935  7.40000000e+01 
547.899  7.80000000e+01 
547.863  8.00000000e+01 
547.827  8.00000000e+01 
547.791  7.90000000e+01 
547.755  6.90000000e+01 
547.720  8.60000000e+01 
547.684  6.90000000e+01 
547.648  7.10000000e+01 
547.612  7.60000000e+01 
547.576  7.40000000e+01 
547.540  7.20000000e+01 
547.504  7.40000000e+01 
547.468  6.80000000e+01 
547.432  6.10000000e+01 
547.396  7.30000000e+01 
547.360  7.90000000e+01 
547.324  7.30000000e+01 
547.288  6.80000000e+01 
547.252  7.80000000e+01 
547.216  8.00000000e+01 
547.180  7.20000000e+01 
547.145  7.10000000e+01 
547.109  6.00000000e+01 
547.073  5.60000000e+01 
547.037  7.60000000e+01 
547.001  4.90000000e+01 
546.965  6.10000000e+01 
546.929  6.00000000e+01 
546.893  7.90000000e+01 
546.857  7.10000000e+01 
546.821  7.50000000e+01 
546.785  6.70000000e+01 
546.749  6.90000000e+01 
546.713  7.80000000e+01 
546.677  9.70000000e+01 
546.641  7.70000000e+01 
546.605  8.10000000e+01 
546.570  6.80000000e+01 
546.534  7.80000000e+01 
546.498  7.80000000e+01 
546.462  7.30000000e+01 
546.426  7.30000000e+01 
546.390  6.10000000e+01 
546.354  7.40000000e+01 
546.318  6.30000000e+01 
546.282  7.30000000e+01 
546.246  6.20000000e+01 
546.210  7.10000000e+01 
546.174  8.00000000e+01 
546.138  6.40000000e+01 
546.102  7.50000000e+01 
546.066  8.80000000e+01 
546.030  6.50000000e+01 
545.995  7.40000000e+01 
545.959  8.40000000e+01 
545.923  7.80000000e+01 
545.887  6.60000000e+01 
545.851  7.50000000e+01 
545.815  7.00000000e+01 
545.779  7.30000000e+01 
545.743  7.10000000e+01 
545.707  6.00000000e+01 
545.671  8.40000000e+01 
545.635  6.80000000e+01 
545.599  6.90000000e+01 
545.563  6.70000000e+01 
545.527  7.10000000e+01 
545.491  6.90000000e+01 
545.455  7.90000000e+01 
545.420  6.90000000e+01 
545.384  6.20000000e+01 
545.348  6.30000000e+01 
545.312  8.10000000e+01 
545.276  7.00000000e+01 
545.240  5.60000000e+01 
545.204  8.20000000e+01 
545.168  5.90000000e+01 
545.132  6.00000000e+01 
545.096  7.00000000e+01 
545.060  6.00000000e+01 
545.024  7.80000000e+01 
544.988  5.30000000e+01 
544.952  7.20000000e+01 
544.916  6.60000000e+01 
544.880  7.60000000e+01 
544.845  6.80000000e+01 
544.809  7.00000000e+01 
544.773  6.40000000e+01 
544.737  6.40000000e+01 
544.701  8.60000000e+01 
544.665  6.10000000e+01 
544.629  7.70000000e+01 
544.593  7.20000000e+01 
544.557  6.70000000e+01 
544.521  7.60000000e+01 
544.485  7.30000000e+01 
544.449  5.50000000e+01 
544.413  6.90000000e+01 
544.377  5.30000000e+01 
544.341  5.90000000e+01 
544.305  5.50000000e+01 
544.270  7.60000000e+01 
544.234  6.30000000e+01 
544.198  5.60000000e+01 
544.162  5.10000000e+01 
544.126  5.90000000e+01 
544.090  7.30000000e+01 
544.054  6.70000000e+01 
544.018  7.00000000e+01 
543.982  5.70000000e+01 
543.946  7.90000000e+01 
543.910  6.50000000e+01 
543.874  7.30000000e+01 
543.838  6.00000000e+01 
543.802  6.70000000e+01 
543.766  6.40000000e+01 
543.730  5.70000000e+01 
543.695  7.20000000e+01 
543.659  6.60000000e+01 
543.623  6.10000000e+01 
543.587  6.70000000e+01 
543.551  6.70000000e+01 
543.515  6.60000000e+01 
543.479  6.60000000e+01 
543.443  5.70000000e+01 
543.407  6.20000000e+01 
543.371  6.40000000e+01 
543.335  7.10000000e+01 
543.299  5.40000000e+01 
543.263  6.60000000e+01 
543.227  5.60000000e+01 
543.191  5.40000000e+01 
543.155  6.10000000e+01 
543.120  5.30000000e+01 
543.084  6.60000000e+01 
543.048  6.30000000e+01 
543.012  4.70000000e+01 
542.976  5.30000000e+01 
542.940  6.70000000e+01 
542.904  6.20000000e+01 
542.868  5.40000000e+01 
542.832  6.30000000e+01 
542.796  6.90000000e+01 
542.760  4.80000000e+01 
542.724  5.40000000e+01 
542.688  6.10000000e+01 
542.652  5.80000000e+01 
542.616  6.40000000e+01 
542.580  5.50000000e+01 
542.545  5.30000000e+01 
542.509  5.80000000e+01 
542.473  5.40000000e+01 
542.437  5.60000000e+01 
542.401  5.90000000e+01 
542.365  5.80000000e+01 
542.329  7.80000000e+01 
542.293  6.00000000e+01 
542.257  6.70000000e+01 
542.221  5.60000000e+01 
542.185  7.80000000e+01 
542.149  6.10000000e+01 
542.113  6.20000000e+01 
542.077  4.70000000e+01 
542.041  4.50000000e+01 
542.005  7.40000000e+01 
541.970  5.50000000e+01 
541.934  6.90000000e+01 
541.898  6.30000000e+01 
541.862  6.20000000e+01 
541.826  6.00000000e+01 
541.790  6.40000000e+01 
541.754  6.80000000e+01 
541.718  6.70000000e+01 
541.682  5.10000000e+01 
541.646  6.90000000e+01 
541.610  5.60000000e+01 
541.574  6.30000000e+01 
541.538  5.20000000e+01 
541.502  6.80000000e+01 
541.466  6.00000000e+01 
541.430  5.00000000e+01 
541.395  5.90000000e+01 
541.359  6.40000000e+01 
541.323  7.40000000e+01 
541.287  6.60000000e+01 
541.251  6.10000000e+01 
541.215  5.50000000e+01 
541.179  6.70000000e+01 
541.143  6.10000000e+01 
541.107  6.90000000e+01 
541.071  6.30000000e+01 
541.035  6.00000000e+01 
540.999  6.60000000e+01 
540.963  6.10000000e+01 
540.927  5.80000000e+01 
540.891  6.00000000e+01 
540.855  4.80000000e+01 
540.820  7.20000000e+01 
540.784  6.40000000e+01 
540.748  5.10000000e+01 
540.712  6.60000000e+01 
540.676  7.60000000e+01 
540.640  7.00000000e+01 
540.604  5.70000000e+01 
540.568  6.10000000e+01 
540.532  7.00000000e+01 
540.496  7.80000000e+01 
540.460  7.40000000e+01 
540.424  6.70000000e+01 
540.388  4.70000000e+01 
540.352  6.90000000e+01 
540.316  7.10000000e+01 
540.280  6.80000000e+01 
540.245  6.70000000e+01 
540.209  7.20000000e+01 
540.173  6.00000000e+01 
540.137  6.00000000e+01 
540.101  7.10000000e+01 
540.065  6.20000000e+01 
540.029  6.10000000e+01 
539.993  6.80000000e+01 
539.957  6.80000000e+01 
539.921  6.70000000e+01 
539.885  5.90000000e+01 
539.849  6.40000000e+01 
539.813  8.00000000e+01 
539.777  6.40000000e+01 
539.741  7.50000000e+01 
539.705  8.40000000e+01 
539.670  6.10000000e+01 
539.634  7.00000000e+01 
539.598  8.40000000e+01 
539.562  7.00000000e+01 
539.526  5.00000000e+01 
539.490  7.20000000e+01 
539.454  7.70000000e+01 
539.418  7.90000000e+01 
539.382  6.50000000e+01 
539.346  6.60000000e+01 
539.310  6.60000000e+01 
539.274  6.40000000e+01 
539.238  7.40000000e+01 
539.202  6.70000000e+01 
539.166  6.40000000e+01 
539.130  7.10000000e+01 
539.095  6.50000000e+01 
539.059  8.80000000e+01 
539.023  7.80000000e+01 
538.987  8.10000000e+01 
538.951  5.70000000e+01 
538.915  8.30000000e+01 
538.879  6.50000000e+01 
538.843  8.70000000e+01 
538.807  9.70000000e+01 
538.771  7.20000000e+01 
538.735  7.40000000e+01 
538.699  7.90000000e+01 
538.663  7.60000000e+01 
538.627  7.10000000e+01 
538.591  8.30000000e+01 
538.555  8.10000000e+01 
538.520  7.40000000e+01 
538.484  7.60000000e+01 
538.448  6.10000000e+01 
538.412  6.20000000e+01 
538.376  6.90000000e+01 
538.340  7.40000000e+01 
538.304  9.30000000e+01 
538.268  7.50000000e+01 
538.232  8.60000000e+01 
538.196  6.80000000e+01 
538.160  6.70000000e+01 
538.124  8.10000000e+01 
538.088  7.30000000e+01 
538.052  7.50000000e+01 
538.016  7.40000000e+01 
537.980  6.90000000e+01 
537.945  7.70000000e+01 
537.909  9.20000000e+01 
537.873  8.20000000e+01 
537.837  8.30000000e+01 
537.801  7.80000000e+01 
537.765  8.10000000e+01 
537.729  9.20000000e+01 
537.693  8.60000000e+01 
537.657  6.40000000e+01 
537.621  7.70000000e+01 
537.585  8.70000000e+01 
537.549  8.80000000e+01 
537.513  7.10000000e+01 
537.477  7.50000000e+01 
537.441  8.60000000e+01 
537.405  8.50000000e+01 
537.370  8.10000000e+01 
537.334  7.90000000e+01 
537.298  8.10000000e+01 
537.262  8.60000000e+01 
537.226  1.01000000e+02 
537.190  9.20000000e+01 
537.154  1.04000000e+02 
537.118  9.70000000e+01 
537.082  1.04000000e+02 
537.046  1.03000000e+02 
537.010  9.30000000e+01 
536.974  9.90000000e+01 
536.938  1.09000000e+02 
536.902  1.17000000e+02 
536.866  9.80000000e+01 
536.830  9.40000000e+01 
536.795  1.25000000e+02 
536.759  1.11000000e+02 
536.723  1.16000000e+02 
536.687  1.15000000e+02 
536.651  1.27000000e+02 
536.615  1.41000000e+02 
536.579  1.17000000e+02 
536.543  1.31000000e+02 
536.507  1.23000000e+02 
536.471  1.35000000e+02 
536.435  1.58000000e+02 
536.399  1.23000000e+02 
536.363  1.51000000e+02 
536.327  1.39000000e+02 
536.291  1.56000000e+02 
536.255  1.73000000e+02 
536.220  1.58000000e+02 
536.184  1.70000000e+02 
536.148  1.87000000e+02 
536.112  1.81000000e+02 
536.076  1.70000000e+02 
536.040  1.75000000e+02 
536.004  1.97000000e+02 
535.968  1.92000000e+02 
535.932  1.90000000e+02 
535.896  1.82000000e+02 
535.860  1.91000000e+02 
535.824  2.16000000e+02 
535.788  2.09000000e+02 
535.752  2.08000000e+02 
535.716  1.90000000e+02 
535.680  2.14000000e+02 
535.645  2.21000000e+02 
535.609  2.31000000e+02 
535.573  2.60000000e+02 
535.537  2.52000000e+02 
535.501  2.60000000e+02 
535.465  2.80000000e+02 
535.429  2.59000000e+02 
535.393  2.65000000e+02 
535.357  2.86000000e+02 
535.321  2.80000000e+02 
535.285  2.90000000e+02 
535.249  3.01000000e+02 
535.213  2.96000000e+02 
535.177  2.74000000e+02 
535.141  2.98000000e+02 
535.105  2.85000000e+02 
535.070  3.00000000e+02 
535.034  2.84000000e+02 
534.998  3.11000000e+02 
534.962  3.15000000e+02 
534.926  2.63000000e+02 
534.890  2.97000000e+02 
534.854  2.98000000e+02 
534.818  2.83000000e+02 
534.782  2.96000000e+02 
534.746  2.93000000e+02 
534.710  2.98000000e+02 
534.674  2.84000000e+02 
534.638  2.59000000e+02 
534.602  2.77000000e+02 
534.566  2.92000000e+02 
534.530  2.59000000e+02 
534.495  2.67000000e+02 
534.459  2.69000000e+02 
534.423  2.62000000e+02 
534.387  2.24000000e+02 
534.351  2.34000000e+02 
534.315  2.57000000e+02 
534.279  2.42000000e+02 
534.243  2.08000000e+02 
534.207  2.15000000e+02 
534.171  1.95000000e+02 
534.135  2.24000000e+02 
534.099  2.15000000e+02 
534.063  2.29000000e+02 
534.027  1.67000000e+02 
533.991  1.96000000e+02 
533.955  1.64000000e+02 
533.920  1.56000000e+02 
533.884  1.38000000e+02 
533.848  1.55000000e+02 
533.812  1.49000000e+02 
533.776  1.57000000e+02 
533.740  1.35000000e+02 
533.704  1.47000000e+02 
533.668  1.18000000e+02 
533.632  1.35000000e+02 
533.596  1.42000000e+02 
533.560  1.16000000e+02 
533.524  1.02000000e+02 
533.488  1.15000000e+02 
533.452  1.12000000e+02 
533.416  1.18000000e+02 
533.380  1.26000000e+02 
533.345  1.03000000e+02 
533.309  1.02000000e+02 
533.273  9.60000000e+01 
533.237  9.70000000e+01 
533.201  9.00000000e+01 
533.165  9.80000000e+01 
533.129  1.24000000e+02 
533.093  9.10000000e+01 
533.057  7.60000000e+01 
533.021  8.10000000e+01 
532.985  8.10000000e+01 
532.949  9.30000000e+01 
532.913  8.00000000e+01 
532.877  8.60000000e+01 
532.841  7.40000000e+01 
532.805  9.30000000e+01 
532.770  7.80000000e+01 
532.734  8.00000000e+01 
532.698  8.00000000e+01 
532.662  8.10000000e+01 
532.626  5.80000000e+01 
532.590  8.40000000e+01 
532.554  7.00000000e+01 
532.518  8.10000000e+01 
532.482  6.90000000e+01 
532.446  7.10000000e+01 
532.410  8.10000000e+01 
532.374  6.00000000e+01 
532.338  6.00000000e+01 
532.302  6.70000000e+01 
532.266  6.00000000e+01 
532.230  6.20000000e+01 
532.195  6.20000000e+01 
532.159  5.70000000e+01 
532.123  5.70000000e+01 
532.087  5.80000000e+01 
532.051  4.30000000e+01 
532.015  5.00000000e+01 
531.979  5.70000000e+01 
531.943  5.90000000e+01 
531.907  6.10000000e+01 
531.871  5.90000000e+01 
531.835  4.70000000e+01 
531.799  5.30000000e+01 
531.763  4.80000000e+01 
531.727  5.20000000e+01 
531.691  5.10000000e+01 
531.655  6.00000000e+01 
531.620  6.10000000e+01 
531.584  4.70000000e+01 
531.548  3.70000000e+01 
531.512  5.20000000e+01 
531.476  3.60000000e+01 
531.440  5.80000000e+01 
531.404  4.00000000e+01 
531.368  5.30000000e+01 
531.332  6.20000000e+01 
531.296  5.00000000e+01 
531.260  3.80000000e+01 
531.224  4.60000000e+01 
531.188  4.70000000e+01 
531.152  6.40000000e+01 
531.116  4.30000000e+01 
531.080  5.30000000e+01 
531.045  4.00000000e+01 
531.009  5.20000000e+01 
530.973  4.60000000e+01 
530.937  5.40000000e+01 
530.901  4.60000000e+01 
530.865  5.30000000e+01 
530.829  5.40000000e+01 
530.793  6.00000000e+01 
530.757  4.20000000e+01 
530.721  4.00000000e+01 
530.685  5.20000000e+01 
530.649  4.60000000e+01 
530.613  3.80000000e+01 
530.577  4.70000000e+01 
530.541  6.80000000e+01 
530.505  4.10000000e+01 
530.470  5.40000000e+01 
530.434  4.20000000e+01 
530.398  3.80000000e+01 
530.362  3.90000000e+01 
530.326  4.00000000e+01 
530.290  3.50000000e+01 
530.254  5.60000000e+01 
530.218  4.00000000e+01 
530.182  3.60000000e+01 
530.146  5.60000000e+01 
530.110  4.70000000e+01 
530.074  4.70000000e+01 
530.038  3.90000000e+01 
530.002  4.80000000e+01 
529.966  4.40000000e+01 
529.930  4.10000000e+01 
529.895  3.80000000e+01 
529.859  3.70000000e+01 
529.823  3.50000000e+01 
529.787  5.40000000e+01 
529.751  2.70000000e+01 
529.715  4.50000000e+01 
529.679  4.60000000e+01 
529.643  4.00000000e+01 
529.607  3.60000000e+01 
529.571  3.40000000e+01 
529.535  4.30000000e+01 
529.499  4.30000000e+01 
529.463  4.90000000e+01 
529.427  4.80000000e+01 
529.391  5.20000000e+01 
529.355  4.40000000e+01 
529.320  6.10000000e+01 
529.284  5.60000000e+01 
529.248  4.20000000e+01 
529.212  5.00000000e+01 
529.176  5.40000000e+01 
529.140  4.30000000e+01 
529.104  4.60000000e+01 
529.068  5.00000000e+01 
529.032  4.70000000e+01 
528.996  4.30000000e+01 
528.960  3.70000000e+01 
528.924  5.40000000e+01 
528.888  4.00000000e+01 
528.852  4.20000000e+01 
528.816  4.10000000e+01 
528.780  4.90000000e+01 
528.745  5.00000000e+01 
528.709  3.80000000e+01 
528.673  4.90000000e+01 
528.637  4.00000000e+01 
528.601  4.80000000e+01 
528.565  5.40000000e+01 
528.529  5.40000000e+01 
528.493  4.50000000e+01 
528.457  5.80000000e+01 
528.421  5.20000000e+01 
528.385  5.40000000e+01 
528.349  4.60000000e+01 
528.313  5.10000000e+01 
528.277  5.80000000e+01 
528.241  3.80000000e+01 
528.205  4.30000000e+01 
528.170  5.30000000e+01 
528.134  4.30000000e+01 
528.098  3.40000000e+01 
528.062  5.70000000e+01 
528.026  4.90000000e+01 
527.990  5.70000000e+01 
527.954  5.70000000e+01 
527.918  6.10000000e+01 
527.882  3.80000000e+01 
527.846  4.50000000e+01 
527.810  5.40000000e+01 
527.774  5.00000000e+01 
527.738  5.20000000e+01 
527.702  5.50000000e+01 
527.666  4.90000000e+01 
527.630  4.90000000e+01 
527.595  6.30000000e+01 
527.559  5.90000000e+01 
527.523  5.20000000e+01 
527.487  5.50000000e+01 
527.451  6.00000000e+01 
527.415  5.90000000e+01 
527.379  6.20000000e+01 
527.343  5.10000000e+01 
527.307  4.90000000e+01 
527.271  5.30000000e+01 
527.235  5.10000000e+01 
527.199  6.00000000e+01 
527.163  6.00000000e+01 
527.127  4.60000000e+01 
527.091  5.20000000e+01 
527.055  5.70000000e+01 
527.020  6.00000000e+01 
526.984  4.90000000e+01 
526.948  4.70000000e+01 
526.912  5.40000000e+01 
526.876  5.00000000e+01 
526.840  4.80000000e+01 
526.804  5.80000000e+01 
526.768  5.20000000e+01 
526.732  4.70000000e+01 
526.696  4.80000000e+01 
526.660  5.30000000e+01 
526.624  5.40000000e+01 
526.588  6.40000000e+01 
526.552  4.50000000e+01 
526.516  5.60000000e+01 
526.480  5.10000000e+01 
526.445  5.00000000e+01 
526.409  6.00000000e+01 
526.373  4.70000000e+01 
526.337  5.70000000e+01 
526.301  5.80000000e+01 
526.265  4.30000000e+01 
526.229  6.00000000e+01 
526.193  4.90000000e+01 
526.157  4.30000000e+01 
526.121  5.30000000e+01 
526.085  5.40000000e+01 
526.049  5.20000000e+01 
526.013  5.30000000e+01 
525.977  6.10000000e+01 
525.941  5.70000000e+01 
525.905  3.90000000e+01 
525.870  5.50000000e+01 
525.834  4.80000000e+01 
525.798  5.30000000e+01 
525.762  4.80000000e+01 
525.726  5.60000000e+01 
525.690  3.90000000e+01 
525.654  4.40000000e+01 
525.618  4.20000000e+01 
525.582  4.60000000e+01 
525.546  3.80000000e+01 
525.510  5.40000000e+01 
525.474  3.70000000e+01 
525.438  3.60000000e+01 
525.402  5.10000000e+01 
525.366  4.20000000e+01 
525.330  4.30000000e+01 
525.295  3.80000000e+01 
525.259  5.40000000e+01 
525.223  5.70000000e+01 
525.187  4.70000000e+01 
525.151  3.90000000e+01 
525.115  4.00000000e+01 
525.079  4.40000000e+01 
525.043  3.70000000e+01 
525.007  5.60000000e+01 
524.971  4.40000000e+01 
524.935  5.10000000e+01 
524.899  4.60000000e+01 
524.863  5.00000000e+01 
524.827  4.50000000e+01 
524.791  4.20000000e+01 
524.755  4.70000000e+01 
524.720  5.00000000e+01 
524.684  4.90000000e+01 
524.648  4.60000000e+01 
524.612  3.50000000e+01 
524.576  5.90000000e+01 
524.540  4.40000000e+01 
524.504  2.80000000e+01 
524.468  4.00000000e+01 
524.432  3.30000000e+01 
524.396  4.90000000e+01 
524.360  3.80000000e+01 
524.324  4.70000000e+01 
524.288  4.50000000e+01 
524.252  3.60000000e+01 
524.216  4.00000000e+01 
524.180  4.40000000e+01 
524.145  6.20000000e+01 
524.109  4.30000000e+01 
524.073  5.00000000e+01 
524.037  5.40000000e+01 
524.001  4.30000000e+01 
523.965  3.70000000e+01 
523.929  5.50000000e+01 
523.893  4.00000000e+01 
523.857  4.00000000e+01 
523.821  5.40000000e+01 
523.785  5.40000000e+01 
523.749  4.70000000e+01 
523.713  5.00000000e+01 
523.677  5.10000000e+01 
523.641  4.90000000e+01 
523.605  3.30000000e+01 
523.570  4.20000000e+01 
523.534  4.90000000e+01 
523.498  4.60000000e+01 
523.462  4.10000000e+01 
523.426  4.50000000e+01 
523.390  3.80000000e+01 
523.354  3.70000000e+01 
523.318  4.30000000e+01 
523.282  3.90000000e+01 
523.246  4.50000000e+01 
523.210  2.80000000e+01 
523.174  4.10000000e+01 
523.138  4.30000000e+01 
523.102  4.10000000e+01 
523.066  6.20000000e+01 
523.030  4.70000000e+01 
522.995  4.60000000e+01 
522.959  4.80000000e+01 
522.923  4.60000000e+01 
522.887  4.00000000e+01 
522.851  4.70000000e+01 
522.815  5.10000000e+01 
522.779  5.00000000e+01 
522.743  5.10000000e+01 
522.707  3.70000000e+01 
522.671  3.40000000e+01 
522.635  4.70000000e+01 
522.599  4.20000000e+01 
522.563  4.70000000e+01 
522.527  3.70000000e+01 
522.491  5.20000000e+01 
522.455  5.20000000e+01 
522.420  4.70000000e+01 
522.384  4.30000000e+01 
522.348  5.10000000e+01 
522.312  5.80000000e+01 
522.276  5.30000000e+01 
522.240  4.70000000e+01 
522.204  5.00000000e+01 
522.168  5.30000000e+01 
522.132  5.40000000e+01 
522.096  4.70000000e+01 
522.060  5.00000000e+01 
522.024  3.20000000e+01 
521.988  4.00000000e+01 
521.952  5.10000000e+01 
521.916  4.60000000e+01 
521.880  4.30000000e+01 
521.845  4.40000000e+01 
521.809  3.70000000e+01 
521.773  6.80000000e+01 
521.737  4.90000000e+01 
521.701  4.20000000e+01 
521.665  4.60000000e+01 
521.629  4.50000000e+01 
521.593  6.70000000e+01 
521.557  5.00000000e+01 
521.521  5.10000000e+01 
521.485  3.60000000e+01 
521.449  4.50000000e+01 
521.413  4.40000000e+01 
521.377  4.60000000e+01 
521.341  4.50000000e+01 
521.305  4.10000000e+01 
521.270  4.00000000e+01 
521.234  3.50000000e+01 
521.198  4.90000000e+01 
521.162  4.60000000e+01 
521.126  4.40000000e+01 
521.090  4.40000000e+01 
521.054  5.30000000e+01 
521.018  3.10000000e+01 
520.982  3.90000000e+01 
520.946  4.70000000e+01 
520.910  4.70000000e+01 
520.874  3.70000000e+01 
520.838  3.70000000e+01 
520.802  5.60000000e+01 
520.766  3.20000000e+01 
520.730  5.60000000e+01 
520.695  4.00000000e+01 
520.659  3.30000000e+01 
520.623  4.40000000e+01 
520.587  4.10000000e+01 
520.551  5.00000000e+01 
520.515  4.50000000e+01 
520.479  4.10000000e+01 
520.443  3.60000000e+01 
520.407  4.10000000e+01 
520.371  5.50000000e+01 
520.335  3.80000000e+01 
520.299  3.50000000e+01 
520.263  5.20000000e+01 
520.227  3.80000000e+01 
520.191  4.60000000e+01 
520.155  5.30000000e+01 
520.120  3.60000000e+01 
520.084  3.20000000e+01 
520.048  4.30000000e+01 
520.012  4.80000000e+01 
519.976  5.00000000e+01 
519.940  3.00000000e+01 
519.904  4.50000000e+01 
519.868  4.10000000e+01 
519.832  5.80000000e+01 
519.796  3.90000000e+01 
519.760  3.70000000e+01 
519.724  4.70000000e+01 
519.688  5.30000000e+01 
519.652  2.70000000e+01 
519.616  4.20000000e+01 
519.580  4.90000000e+01 
519.545  4.70000000e+01 
519.509  3.60000000e+01 
519.473  4.80000000e+01 
519.437  5.60000000e+01 
519.401  3.80000000e+01 
519.365  4.40000000e+01 
519.329  3.60000000e+01 
519.293  5.00000000e+01 
519.257  3.20000000e+01 
519.221  5.30000000e+01 
519.185  4.50000000e+01 
519.149  4.10000000e+01 
519.113  4.00000000e+01 
519.077  4.40000000e+01 
519.041  4.00000000e+01 
519.005  5.20000000e+01 
518.970  4.10000000e+01 
518.934  4.10000000e+01 
518.898  3.90000000e+01 
518.862  5.60000000e+01 
518.826  3.60000000e+01 
518.790  3.80000000e+01 
518.754  4.50000000e+01 
518.718  3.70000000e+01 
518.682  3.50000000e+01 
518.646  5.30000000e+01 
518.610  2.90000000e+01 
518.574  4.90000000e+01 
518.538  5.10000000e+01 
518.502  3.00000000e+01 
518.466  4.80000000e+01 
518.430  4.40000000e+01 
518.395  5.10000000e+01 
518.359  3.80000000e+01 
518.323  4.00000000e+01 
518.287  3.00000000e+01 
518.251  4.40000000e+01 
518.215  4.20000000e+01 
518.179  3.30000000e+01 
518.143  5.30000000e+01 
518.107  3.50000000e+01 
518.071  4.00000000e+01 
518.035  3.70000000e+01 
517.999  4.30000000e+01 
517.963  5.40000000e+01 
517.927  4.00000000e+01 
517.891  3.50000000e+01 
517.855  3.60000000e+01 
517.820  5.00000000e+01 
517.784  5.00000000e+01 
517.748  3.40000000e+01 
517.712  4.70000000e+01 
517.676  4.80000000e+01 
517.640  3.00000000e+01 
517.604  3.60000000e+01 
517.568  4.00000000e+01 
517.532  4.40000000e+01 
517.496  4.90000000e+01 
517.460  3.50000000e+01 
517.424  4.10000000e+01 
517.388  4.50000000e+01 
517.352  4.00000000e+01 
517.316  4.30000000e+01 
517.280  4.30000000e+01 
517.245  4.10000000e+01 
517.209  4.90000000e+01 
517.173  3.30000000e+01 
517.137  3.40000000e+01 
517.101  3.80000000e+01 
517.065  4.80000000e+01 
517.029  5.40000000e+01 
516.993  4.20000000e+01 
516.957  2.90000000e+01 
516.921  4.50000000e+01 
516.885  4.30000000e+01 
516.849  4.70000000e+01 
516.813  4.40000000e+01 
516.777  4.00000000e+01 
516.741  5.10000000e+01 
516.705  4.70000000e+01 
516.670  4.30000000e+01 
516.634  3.80000000e+01 
516.598  5.20000000e+01 
516.562  3.70000000e+01 
516.526  5.00000000e+01 
516.490  4.50000000e+01 
516.454  3.80000000e+01 
516.418  4.90000000e+01 
516.382  3.50000000e+01 
516.346  4.30000000e+01 
516.310  3.30000000e+01 
516.274  4.60000000e+01 
516.238  3.90000000e+01 
516.202  4.60000000e+01 
516.166  3.40000000e+01 
516.130  3.40000000e+01 
516.095  4.70000000e+01 
516.059  3.90000000e+01 
516.023  3.40000000e+01 
515.987  3.60000000e+01 
515.951  5.20000000e+01 
515.915  5.40000000e+01 
515.879  3.80000000e+01 
515.843  4.60000000e+01 
515.807  4.10000000e+01 
515.771  5.10000000e+01 
515.735  4.70000000e+01 
515.699  3.60000000e+01 
515.663  4.90000000e+01 
515.627  4.00000000e+01 
515.591  4.00000000e+01 
515.555  5.00000000e+01 
515.520  3.50000000e+01 
515.484  4.30000000e+01 
515.448  3.70000000e+01 
515.412  5.00000000e+01 
515.376  4.60000000e+01 
515.340  4.70000000e+01 
515.304  4.70000000e+01 
515.268  4.30000000e+01 
515.232  3.40000000e+01 
515.196  3.40000000e+01 
515.160  4.50000000e+01 
515.124  3.80000000e+01 
515.088  4.70000000e+01 
515.052  3.90000000e+01 
515.016  4.10000000e+01 
514.980  3.60000000e+01 
514.945  3.70000000e+01 
514.909  4.90000000e+01 
514.873  4.00000000e+01 
514.837  4.50000000e+01 
514.801  4.80000000e+01 
514.765  5.00000000e+01 
514.729  3.60000000e+01 
514.693  4.40000000e+01 
514.657  3.90000000e+01 
514.621  5.20000000e+01 
514.585  5.30000000e+01 
514.549  3.00000000e+01 
514.513  3.60000000e+01 
514.477  5.70000000e+01 
514.441  3.50000000e+01 
514.405  3.80000000e+01 
514.370  3.70000000e+01 
514.334  3.20000000e+01 
514.298  4.40000000e+01 
514.262  3.90000000e+01 
514.226  3.80000000e+01 
514.190  4.60000000e+01 
514.154  4.60000000e+01 
514.118  5.10000000e+01 
514.082  3.80000000e+01 
514.046  4.90000000e+01 
514.010  5.10000000e+01 
513.974  3.70000000e+01 
513.938  5.40000000e+01 
513.902  4.30000000e+01 
513.866  3.30000000e+01 
513.830  4.10000000e+01 
513.795  5.20000000e+01 
513.759  4.70000000e+01 
513.723  4.30000000e+01 
513.687  4.10000000e+01 
513.651  3.90000000e+01 
513.615  3.70000000e+01 
513.579  4.40000000e+01 
513.543  3.80000000e+01 
513.507  4.10000000e+01 
513.471  4.20000000e+01 
513.435  5.00000000e+01 
513.399  4.10000000e+01 
513.363  3.90000000e+01 
513.327  3.60000000e+01 
513.291  4.40000000e+01 
513.255  6.00000000e+01 
513.220  4.30000000e+01 
513.184  4.10000000e+01 
513.148  2.80000000e+01 
513.112  3.70000000e+01 
513.076  3.70000000e+01 
513.040  4.30000000e+01 
513.004  3.80000000e+01 
512.968  4.10000000e+01 
512.932  4.90000000e+01 
512.896  5.80000000e+01 
512.860  3.80000000e+01 
512.824  4.90000000e+01 
512.788  4.50000000e+01 
512.752  3.30000000e+01 
512.716  3.90000000e+01 
512.680  5.20000000e+01 
512.645  4.80000000e+01 
512.609  4.80000000e+01 
512.573  4.80000000e+01 
512.537  4.20000000e+01 
512.501  4.40000000e+01 
512.465  4.50000000e+01 
512.429  4.50000000e+01 
512.393  4.50000000e+01 
512.357  4.20000000e+01 
512.321  4.30000000e+01 
512.285  5.00000000e+01 
512.249  3.20000000e+01 
512.213  4.00000000e+01 
512.177  4.10000000e+01 
512.141  5.50000000e+01 
512.105  4.80000000e+01 
512.070  6.00000000e+01 
512.034  5.00000000e+01 
511.998  4.20000000e+01 
511.962  3.10000000e+01 
511.926  3.70000000e+01 
511.890  5.30000000e+01 
511.854  4.80000000e+01 
511.818  4.50000000e+01 
511.782  5.20000000e+01 
511.746  4.20000000e+01 
511.710  3.70000000e+01 
511.674  5.00000000e+01 
511.638  3.80000000e+01 
511.602  3.60000000e+01 
511.566  4.30000000e+01 
511.530  4.40000000e+01 
511.495  4.70000000e+01 
511.459  3.90000000e+01 
511.423  4.70000000e+01 
511.387  3.90000000e+01 
511.351  3.90000000e+01 
511.315  5.10000000e+01 
511.279  4.30000000e+01 
511.243  5.20000000e+01 
511.207  4.00000000e+01 
511.171  4.60000000e+01 
511.135  3.70000000e+01 
511.099  5.30000000e+01 
511.063  4.50000000e+01 
511.027  5.00000000e+01 
510.991  4.50000000e+01 
510.955  3.80000000e+01 
510.920  4.10000000e+01 
510.884  5.50000000e+01 
510.848  4.00000000e+01 
510.812  5.30000000e+01 
510.776  3.40000000e+01 
510.740  3.30000000e+01 
510.704  4.10000000e+01 
510.668  3.70000000e+01 
510.632  3.70000000e+01 
510.596  3.30000000e+01 
510.560  4.40000000e+01 
510.524  4.30000000e+01 
510.488  3.50000000e+01 
510.452  4.20000000e+01 
510.416  3.00000000e+01 
510.380  4.40000000e+01 
510.345  5.50000000e+01 
510.309  4.00000000e+01 
510.273  3.90000000e+01 
510.237  5.20000000e+01 
510.201  5.90000000e+01 
510.165  4.20000000e+01 
510.129  3.80000000e+01 
510.093  5.20000000e+01 
510.057  3.60000000e+01 
510.021  4.80000000e+01 
509.985  4.00000000e+01 
509.949  4.40000000e+01 
509.913  3.90000000e+01 
509.877  3.80000000e+01 
509.841  4.20000000e+01 
509.805  3.20000000e+01 
509.770  4.10000000e+01 
509.734  4.60000000e+01 
509.698  4.10000000e+01 
509.662  3.80000000e+01 
509.626  3.90000000e+01 
509.590  4.10000000e+01 
509.554  3.80000000e+01 
509.518  3.90000000e+01 
509.482  4.10000000e+01 
509.446  2.90000000e+01 
509.410  3.70000000e+01 
509.374  4.10000000e+01 
509.338  4.00000000e+01 
509.302  3.90000000e+01 
509.266  4.40000000e+01 
509.230  3.90000000e+01 
509.195  3.70000000e+01 
509.159  4.40000000e+01 
509.123  3.70000000e+01 
509.087  4.50000000e+01 
509.051  4.50000000e+01 
509.015  4.60000000e+01 
508.979  4.60000000e+01 
508.943  4.90000000e+01 
508.907  3.30000000e+01 
508.871  4.00000000e+01 
508.835  3.30000000e+01 
508.799  4.70000000e+01 
508.763  4.10000000e+01 
508.727  4.70000000e+01 
508.691  4.60000000e+01 
508.655  4.10000000e+01 
508.620  4.50000000e+01 
508.584  4.60000000e+01 
508.548  4.70000000e+01 
508.512  3.10000000e+01 
508.476  3.70000000e+01 
508.440  4.90000000e+01 
508.404  5.20000000e+01 
508.368  4.10000000e+01 
508.332  4.20000000e+01 
508.296  3.70000000e+01 
508.260  4.40000000e+01 
508.224  3.80000000e+01 
508.188  4.40000000e+01 
508.152  4.10000000e+01 
508.116  4.00000000e+01 
508.080  4.60000000e+01 
508.045  4.50000000e+01 
508.009  3.40000000e+01 
507.973  3.60000000e+01 
507.937  4.80000000e+01 
507.901  4.50000000e+01 
507.865  4.80000000e+01 
507.829  3.60000000e+01 
507.793  4.00000000e+01 
507.757  3.80000000e+01 
507.721  4.80000000e+01 
507.685  3.90000000e+01 
507.649  4.00000000e+01 
507.613  4.40000000e+01 
507.577  2.50000000e+01 
507.541  3.40000000e+01 
507.505  3.60000000e+01 
507.470  4.80000000e+01 
507.434  4.30000000e+01 
507.398  4.40000000e+01 
507.362  3.60000000e+01 
507.326  3.20000000e+01 
507.290  3.10000000e+01 
507.254  3.70000000e+01 
507.218  3.30000000e+01 
507.182  4.30000000e+01 
507.146  4.30000000e+01 
507.110  3.20000000e+01 
507.074  4.40000000e+01 
507.038  4.80000000e+01 
507.002  3.40000000e+01 
506.966  4.10000000e+01 
506.930  3.80000000e+01 
506.895  4.60000000e+01 
506.859  3.20000000e+01 
506.823  3.40000000e+01 
506.787  3.00000000e+01 
506.751  4.40000000e+01 
506.715  3.90000000e+01 
506.679  3.70000000e+01 
506.643  3.50000000e+01 
506.607  4.50000000e+01 
506.571  3.90000000e+01 
506.535  3.80000000e+01 
506.499  2.60000000e+01 
506.463  3.70000000e+01 
506.427  5.60000000e+01 
506.391  4.10000000e+01 
506.355  4.00000000e+01 
506.320  3.90000000e+01 
506.284  4.70000000e+01 
506.248  3.40000000e+01 
506.212  3.60000000e+01 
506.176  5.00000000e+01 
506.140  4.40000000e+01 
506.104  4.00000000e+01 
506.068  4.20000000e+01 
506.032  4.70000000e+01 
505.996  4.70000000e+01 
505.960  4.00000000e+01 
505.924  4.00000000e+01 
505.888  4.40000000e+01 
505.852  4.70000000e+01 
505.816  4.60000000e+01 
505.780  4.50000000e+01 
505.745  3.80000000e+01 
505.709  3.70000000e+01 
505.673  4.60000000e+01 
505.637  3.00000000e+01 
505.601  5.00000000e+01 
505.565  3.20000000e+01 
505.529  3.60000000e+01 
505.493  4.30000000e+01 
505.457  4.70000000e+01 
505.421  4.50000000e+01 
505.385  5.50000000e+01 
505.349  3.60000000e+01 
505.313  3.40000000e+01 
505.277  5.20000000e+01 
505.241  4.90000000e+01 
505.205  4.80000000e+01 
505.170  4.20000000e+01 
505.134  4.60000000e+01 
505.098  3.40000000e+01 
505.062  3.50000000e+01 
505.026  3.90000000e+01 
504.990  4.70000000e+01 
504.954  5.40000000e+01 
504.918  4.30000000e+01 
504.882  3.60000000e+01 
504.846  6.00000000e+01 
504.810  4.40000000e+01 
504.774  5.70000000e+01 
504.738  4.50000000e+01 
504.702  4.90000000e+01 
504.666  3.90000000e+01 
504.630  4.70000000e+01 
504.595  5.90000000e+01 
504.559  4.20000000e+01 
504.523  4.00000000e+01 
504.487  5.30000000e+01 
504.451  5.80000000e+01 
504.415  4.90000000e+01 
504.379  5.80000000e+01 
504.343  4.40000000e+01 
504.307  5.40000000e+01 
504.271  5.30000000e+01 
504.235  5.10000000e+01 
504.199  5.50000000e+01 
504.163  4.90000000e+01 
504.127  4.50000000e+01 
504.091  4.40000000e+01 
504.055  5.80000000e+01 
504.020  5.20000000e+01 
503.984  4.70000000e+01 
503.948  5.10000000e+01 
503.912  5.70000000e+01 
503.876  4.70000000e+01 
503.840  4.40000000e+01 
503.804  5.40000000e+01 
503.768  2.90000000e+01 
503.732  5.40000000e+01 
503.696  4.80000000e+01 
503.660  5.30000000e+01 
503.624  4.60000000e+01 
503.588  5.40000000e+01 
503.552  4.00000000e+01 
503.516  5.10000000e+01 
503.480  4.00000000e+01 
503.445  5.90000000e+01 
503.409  3.60000000e+01 
503.373  4.90000000e+01 
503.337  4.00000000e+01 
503.301  4.40000000e+01 
503.265  3.30000000e+01 
503.229  4.90000000e+01 
503.193  4.90000000e+01 
503.157  5.10000000e+01 
503.121  4.90000000e+01 
503.085  4.80000000e+01 
503.049  4.90000000e+01 
503.013  4.80000000e+01 
502.977  5.00000000e+01 
502.941  3.60000000e+01 
502.905  4.70000000e+01 
502.870  4.30000000e+01 
502.834  4.80000000e+01 
502.798  5.10000000e+01 
502.762  5.10000000e+01 
502.726  4.50000000e+01 
502.690  4.20000000e+01 
502.654  5.20000000e+01 
502.618  4.90000000e+01 
502.582  5.30000000e+01 
502.546  4.90000000e+01 
502.510  4.30000000e+01 
502.474  3.50000000e+01 
502.438  6.60000000e+01 
502.402  4.10000000e+01 
502.366  5.00000000e+01 
502.330  4.60000000e+01 
502.295  5.50000000e+01 
502.259  5.20000000e+01 
502.223  4.10000000e+01 
502.187  5.40000000e+01 
502.151  5.10000000e+01 
502.115  3.70000000e+01 
502.079  7.30000000e+01 
502.043  5.60000000e+01 
502.007  5.70000000e+01 
501.971  6.50000000e+01 
501.935  7.60000000e+01 
501.899  6.60000000e+01 
501.863  6.00000000e+01 
501.827  6.30000000e+01 
501.791  5.40000000e+01 
501.755  6.60000000e+01 
501.720  5.90000000e+01 
501.684  6.10000000e+01 
501.648  6.10000000e+01 
501.612  6.30000000e+01 
501.576  7.00000000e+01 
501.540  5.40000000e+01 
501.504  7.50000000e+01 
501.468  7.50000000e+01 
501.432  6.80000000e+01 
501.396  7.10000000e+01 
501.360  7.40000000e+01 
501.324  7.30000000e+01 
501.288  8.30000000e+01 
501.252  9.20000000e+01 
501.216  8.40000000e+01 
501.180  6.90000000e+01 
501.145  9.50000000e+01 
501.109  1.02000000e+02 
501.073  1.04000000e+02 
501.037  7.80000000e+01 
501.001  8.00000000e+01 
500.965  9.50000000e+01 
500.929  1.09000000e+02 
500.893  9.90000000e+01 
500.857  1.09000000e+02 
500.821  1.08000000e+02 
500.785  1.07000000e+02 
500.749  1.16000000e+02 
500.713  8.20000000e+01 
500.677  1.12000000e+02 
500.641  1.10000000e+02 
500.605  9.90000000e+01 
500.570  1.05000000e+02 
500.534  1.27000000e+02 
500.498  1.19000000e+02 
500.462  1.24000000e+02 
500.426  1.15000000e+02 
500.390  1.20000000e+02 
500.354  9.20000000e+01 
500.318  9.10000000e+01 
500.282  1.08000000e+02 
500.246  1.11000000e+02 
500.210  1.02000000e+02 
500.174  8.90000000e+01 
500.138  1.24000000e+02 
500.102  1.03000000e+02 
500.066  1.19000000e+02 
500.030  1.04000000e+02 
499.995  1.04000000e+02 
499.959  1.15000000e+02 
499.923  1.22000000e+02 
499.887  1.00000000e+02 
499.851  9.00000000e+01 
499.815  1.17000000e+02 
499.779  9.10000000e+01 
499.743  1.14000000e+02 
499.707  9.70000000e+01 
499.671  9.40000000e+01 
499.635  9.20000000e+01 
499.599  1.02000000e+02 
499.563  9.00000000e+01 
499.527  8.50000000e+01 
499.491  1.06000000e+02 
499.455  8.60000000e+01 
499.420  8.80000000e+01 
499.384  8.40000000e+01 
499.348  7.80000000e+01 
499.312  7.80000000e+01 
499.276  8.80000000e+01 
499.240  1.12000000e+02 
499.204  8.20000000e+01 
499.168  7.80000000e+01 
499.132  7.50000000e+01 
499.096  7.10000000e+01 
499.060  6.40000000e+01 
499.024  7.40000000e+01 
498.988  6.00000000e+01 
498.952  6.20000000e+01 
498.916  6.40000000e+01 
498.880  6.00000000e+01 
498.845  6.60000000e+01 
498.809  4.50000000e+01 
498.773  6.00000000e+01 
498.737  5.00000000e+01 
498.701  5.30000000e+01 
498.665  7.40000000e+01 
498.629  5.90000000e+01 
498.593  6.10000000e+01 
498.557  6.00000000e+01 
498.521  6.20000000e+01 
498.485  4.70000000e+01 
498.449  3.50000000e+01 
498.413  5.10000000e+01 
498.377  5.10000000e+01 
498.341  4.40000000e+01 
498.305  5.20000000e+01 
498.270  4.00000000e+01 
498.234  4.50000000e+01 
498.198  5.50000000e+01 
498.162  6.20000000e+01 
498.126  3.70000000e+01 
498.090  3.80000000e+01 
498.054  5.20000000e+01 
498.018  3.80000000e+01 
497.982  4.70000000e+01 
497.946  4.00000000e+01 
497.910  4.40000000e+01 
497.874  4.10000000e+01 
497.838  3.40000000e+01 
497.802  3.80000000e+01 
497.766  2.80000000e+01 
497.730  3.60000000e+01 
497.695  4.90000000e+01 
497.659  3.60000000e+01 
497.623  3.00000000e+01 
497.587  3.60000000e+01 
497.551  3.00000000e+01 
497.515  3.30000000e+01 
497.479  3.40000000e+01 
497.443  2.90000000e+01 
497.407  3.40000000e+01 
497.371  3.60000000e+01 
497.335  4.20000000e+01 
497.299  3.70000000e+01 
497.263  3.90000000e+01 
497.227  3.80000000e+01 
497.191  3.80000000e+01 
497.155  4.50000000e+01 
497.120  3.60000000e+01 
497.084  3.80000000e+01 
497.048  3.20000000e+01 
497.012  2.70000000e+01 
496.976  3.60000000e+01 
496.940  3.10000000e+01 
496.904  3.60000000e+01 
496.868  3.60000000e+01 
496.832  2.10000000e+01 
496.796  3.70000000e+01 
496.760  3.60000000e+01 
496.724  3.50000000e+01 
496.688  3.30000000e+01 
496.652  4.10000000e+01 
496.616  3.90000000e+01 
496.580  3.70000000e+01 
496.545  2.60000000e+01 
496.509  3.50000000e+01 
496.473  2.60000000e+01 
496.437  3.20000000e+01 
496.401  2.30000000e+01 
496.365  3.50000000e+01 
496.329  2.90000000e+01 
496.293  3.70000000e+01 
496.257  3.70000000e+01 
496.221  3.30000000e+01 
496.185  2.50000000e+01 
496.149  3.70000000e+01 
496.113  3.50000000e+01 
496.077  3.50000000e+01 
496.041  3.20000000e+01 
496.005  3.20000000e+01 
495.970  3.20000000e+01 
495.934  2.40000000e+01 
495.898  4.10000000e+01 
495.862  3.00000000e+01 
495.826  2.70000000e+01 
495.790  3.40000000e+01 
495.754  2.90000000e+01 
495.718  2.70000000e+01 
495.682  2.70000000e+01 
495.646  3.10000000e+01 
495.610  4.20000000e+01 
495.574  2.80000000e+01 
495.538  2.70000000e+01 
495.502  2.30000000e+01 
495.466  3.20000000e+01 
495.430  2.40000000e+01 
495.395  2.40000000e+01 
495.359  2.60000000e+01 
495.323  2.00000000e+01 
495.287  2.40000000e+01 
495.251  2.50000000e+01 
495.215  2.60000000e+01 
495.179  2.90000000e+01 
495.143  2.90000000e+01 
495.107  2.90000000e+01 
495.071  3.00000000e+01 
495.035  3.60000000e+01 
494.999  2.50000000e+01 
494.963  3.60000000e+01 
494.927  2.30000000e+01 
494.891  2.80000000e+01 
494.855  3.90000000e+01 
494.820  3.00000000e+01 
494.784  1.80000000e+01 
494.748  2.40000000e+01 
494.712  3.00000000e+01 
494.676  2.80000000e+01 
494.640  3.50000000e+01 
494.604  3.50000000e+01 
494.568  3.40000000e+01 
494.532  3.50000000e+01 
494.496  2.90000000e+01 
494.460  3.70000000e+01 
494.424  3.30000000e+01 
494.388  3.00000000e+01 
494.352  3.20000000e+01 
494.316  3.10000000e+01 
494.280  2.90000000e+01 
494.245  3.50000000e+01 
494.209  3.20000000e+01 
494.173  3.40000000e+01 
494.137  3.30000000e+01 
494.101  2.70000000e+01 
494.065  2.00000000e+01 
494.029  2.90000000e+01 
493.993  3.50000000e+01 
493.957  3.00000000e+01 
493.921  2.30000000e+01 
493.885  3.50000000e+01 
493.849  3.90000000e+01 
493.813  2.60000000e+01 
493.777  3.10000000e+01 
493.741  3.20000000e+01 
493.705  2.20000000e+01 
493.670  2.80000000e+01 
493.634  3.00000000e+01 
493.598  2.50000000e+01 
493.562  2.90000000e+01 
493.526  2.40000000e+01 
493.490  3.40000000e+01 
493.454  3.10000000e+01 
493.418  2.80000000e+01 
493.382  2.40000000e+01 
493.346  2.80000000e+01 
493.310  2.50000000e+01 
493.274  2.50000000e+01 
493.238  2.90000000e+01 
493.202  1.90000000e+01 
493.166  3.50000000e+01 
493.130  2.80000000e+01 
493.095  2.90000000e+01 
493.059  3.10000000e+01 
493.023  2.30000000e+01 
492.987  2.60000000e+01 
492.951  3.00000000e+01 
492.915  2.80000000e+01 
492.879  3.10000000e+01 
492.843  3.40000000e+01 
492.807  2.10000000e+01 
492.771  3.40000000e+01 
492.735  3.30000000e+01 
492.699  3.00000000e+01 
492.663  2.90000000e+01 
492.627  2.30000000e+01 
492.591  2.70000000e+01 
492.555  3.10000000e+01 
492.520  3.20000000e+01 
492.484  2.50000000e+01 
492.448  2.70000000e+01 
492.412  3.00000000e+01 
492.376  3.30000000e+01 
492.340  3.20000000e+01 
492.304  2.70000000e+01 
492.268  1.70000000e+01 
492.232  3.10000000e+01 
492.196  3.60000000e+01 
492.160  3.30000000e+01 
492.124  3.40000000e+01 
492.088  1.50000000e+01 
492.052  2.70000000e+01 
492.016  3.40000000e+01 
491.980  2.40000000e+01 
491.945  2.30000000e+01 
491.909  3.10000000e+01 
491.873  1.80000000e+01 
491.837  2.40000000e+01 
491.801  2.30000000e+01 
491.765  2.30000000e+01 
491.729  2.70000000e+01 
491.693  2.20000000e+01 
491.657  2.50000000e+01 
491.621  2.60000000e+01 
491.585  2.50000000e+01 
491.549  2.80000000e+01 
491.513  1.90000000e+01 
491.477  3.40000000e+01 
491.441  2.90000000e+01 
491.405  2.30000000e+01 
491.370  2.80000000e+01 
491.334  3.30000000e+01 
491.298  3.00000000e+01 
491.262  3.30000000e+01 
491.226  1.40000000e+01 
491.190  2.10000000e+01 
491.154  2.50000000e+01 
491.118  2.60000000e+01 
491.082  3.30000000e+01 
491.046  2.90000000e+01 
491.010  1.70000000e+01 
490.974  3.10000000e+01 
490.938  2.10000000e+01 
490.902  3.50000000e+01 
490.866  2.90000000e+01 
490.830  2.40000000e+01 
490.795  3.40000000e+01 
490.759  3.80000000e+01 
490.723  2.60000000e+01 
490.687  2.50000000e+01 
490.651  2.70000000e+01 
490.615  2.10000000e+01 
490.579  3.40000000e+01 
490.543  1.20000000e+01 
490.507  3.40000000e+01 
490.471  2.20000000e+01 
490.435  2.20000000e+01 
490.399  2.40000000e+01 
490.363  3.30000000e+01 
490.327  2.10000000e+01 
490.291  2.40000000e+01 
490.255  3.20000000e+01 
490.220  1.70000000e+01 
490.184  3.00000000e+01 
490.148  2.80000000e+01 
490.112  3.50000000e+01 
490.076  3.00000000e+01 
490.040  1.80000000e+01 
490.004  3.90000000e+01 
489.968  2.60000000e+01 
489.932  2.80000000e+01 
489.896  2.60000000e+01 
489.860  3.40000000e+01 
489.824  2.60000000e+01 
489.788  3.40000000e+01 
489.752  2.90000000e+01 
489.716  2.60000000e+01 
489.680  2.80000000e+01 
489.645  3.50000000e+01 
489.609  2.50000000e+01 
489.573  1.70000000e+01 
489.537  2.60000000e+01 
489.501  2.90000000e+01 
489.465  2.50000000e+01 
489.429  2.70000000e+01 
489.393  3.50000000e+01 
489.357  2.00000000e+01 
489.321  2.40000000e+01 
489.285  2.80000000e+01 
489.249  1.90000000e+01 
489.213  4.00000000e+01 
489.177  4.20000000e+01 
489.141  2.90000000e+01 
489.105  3.40000000e+01 
489.070  3.30000000e+01 
489.034  2.60000000e+01 
488.998  3.00000000e+01 
488.962  2.80000000e+01 
488.926  2.80000000e+01 
488.890  3.80000000e+01 
488.854  2.10000000e+01 
488.818  2.20000000e+01 
488.782  2.60000000e+01 
488.746  3.60000000e+01 
488.710  2.30000000e+01 
488.674  2.10000000e+01 
488.638  3.50000000e+01 
488.602  2.60000000e+01 
488.566  2.20000000e+01 
488.530  3.60000000e+01 
488.495  2.00000000e+01 
488.459  2.70000000e+01 
488.423  3.30000000e+01 
488.387  2.30000000e+01 
488.351  2.60000000e+01 
488.315  2.60000000e+01 
488.279  1.80000000e+01 
488.243  2.60000000e+01 
488.207  2.10000000e+01 
488.171  2.00000000e+01 
488.135  2.20000000e+01 
488.099  2.20000000e+01 
488.063  3.00000000e+01 
488.027  2.20000000e+01 
487.991  2.60000000e+01 
487.955  3.80000000e+01 
487.920  3.10000000e+01 
487.884  2.80000000e+01 
487.848  2.80000000e+01 
487.812  3.20000000e+01 
487.776  2.40000000e+01 
487.740  2.40000000e+01 
487.704  2.80000000e+01 
487.668  3.40000000e+01 
487.632  2.70000000e+01 
487.596  2.20000000e+01 
487.560  3.10000000e+01 
487.524  2.20000000e+01 
487.488  2.30000000e+01 
487.452  3.20000000e+01 
487.416  2.60000000e+01 
487.380  2.60000000e+01 
487.345  2.40000000e+01 
487.309  3.00000000e+01 
487.273  2.70000000e+01 
487.237  1.70000000e+01 
487.201  3.50000000e+01 
487.165  3.30000000e+01 
487.129  1.70000000e+01 
487.093  2.90000000e+01 
487.057  2.30000000e+01 
487.021  2.70000000e+01 
486.985  3.60000000e+01 
486.949  3.50000000e+01 
486.913  2.70000000e+01 
486.877  2.80000000e+01 
486.841  3.50000000e+01 
486.805  2.10000000e+01 
486.770  1.60000000e+01 
486.734  3.50000000e+01 
486.698  2.90000000e+01 
486.662  2.60000000e+01 
486.626  3.70000000e+01 
486.590  2.70000000e+01 
486.554  3.60000000e+01 
486.518  3.30000000e+01 
486.482  1.90000000e+01 
486.446  3.30000000e+01 
486.410  2.80000000e+01 
486.374  2.50000000e+01 
486.338  2.70000000e+01 
486.302  2.10000000e+01 
486.266  2.70000000e+01 
486.230  2.10000000e+01 
486.195  2.90000000e+01 
486.159  2.60000000e+01 
486.123  3.10000000e+01 
486.087  2.60000000e+01 
486.051  2.20000000e+01 
486.015  2.90000000e+01 
485.979  2.70000000e+01 
485.943  2.10000000e+01 
485.907  2.80000000e+01 
485.871  2.60000000e+01 
485.835  2.10000000e+01 
485.799  3.10000000e+01 
485.763  2.50000000e+01 
485.727  2.70000000e+01 
485.691  2.40000000e+01 
485.655  3.40000000e+01 
485.620  2.50000000e+01 
485.584  2.20000000e+01 
485.548  1.70000000e+01 
485.512  3.20000000e+01 
485.476  3.80000000e+01 
485.440  2.20000000e+01 
485.404  2.30000000e+01 
485.368  2.60000000e+01 
485.332  3.10000000e+01 
485.296  2.10000000e+01 
485.260  2.80000000e+01 
485.224  1.70000000e+01 
485.188  2.50000000e+01 
485.152  3.50000000e+01 
485.116  3.90000000e+01 
485.080  2.80000000e+01 
485.045  1.90000000e+01 
485.009  3.10000000e+01 
484.973  3.40000000e+01 
484.937  2.40000000e+01 
484.901  3.70000000e+01 
484.865  2.30000000e+01 
484.829  2.30000000e+01 
484.793  3.10000000e+01 
484.757  3.70000000e+01 
484.721  2.40000000e+01 
484.685  2.20000000e+01 
484.649  2.90000000e+01 
484.613  2.40000000e+01 
484.577  2.40000000e+01 
484.541  2.20000000e+01 
484.505  3.30000000e+01 
484.470  2.80000000e+01 
484.434  3.10000000e+01 
484.398  2.00000000e+01 
484.362  2.40000000e+01 
484.326  2.10000000e+01 
484.290  3.10000000e+01 
484.254  2.40000000e+01 
484.218  2.40000000e+01 
484.182  2.50000000e+01 
484.146  2.50000000e+01 
484.110  3.20000000e+01 
484.074  2.20000000e+01 
484.038  2.30000000e+01 
484.002  2.40000000e+01 
483.966  3.00000000e+01 
483.930  2.50000000e+01 
483.895  3.10000000e+01 
483.859  3.30000000e+01 
483.823  2.60000000e+01 
483.787  3.00000000e+01 
483.751  2.40000000e+01 
483.715  2.40000000e+01 
483.679  2.70000000e+01 
483.643  2.40000000e+01 
483.607  2.90000000e+01 
483.571  2.10000000e+01 
483.535  2.00000000e+01 
483.499  2.60000000e+01 
483.463  2.60000000e+01 
483.427  3.20000000e+01 
483.391  2.30000000e+01 
483.355  2.80000000e+01 
483.320  2.60000000e+01 
483.284  3.70000000e+01 
483.248  1.00000000e+01 
483.212  2.60000000e+01 
483.176  2.70000000e+01 
483.140  2.60000000e+01 
483.104  2.50000000e+01 
483.068  2.20000000e+01 
483.032  2.80000000e+01 
482.996  3.60000000e+01 
482.960  2.50000000e+01 
482.924  3.10000000e+01 
482.888  2.90000000e+01 
482.852  3.20000000e+01 
482.816  2.50000000e+01 
482.780  3.40000000e+01 
482.745  4.00000000e+01 
482.709  3.50000000e+01 
482.673  3.20000000e+01 
482.637  2.20000000e+01 
482.601  3.70000000e+01 
482.565  2.60000000e+01 
482.529  3.50000000e+01 
482.493  2.20000000e+01 
482.457  2.70000000e+01 
482.421  3.10000000e+01 
482.385  3.20000000e+01 
482.349  2.40000000e+01 
482.313  3.20000000e+01 
482.277  3.10000000e+01 
482.241  1.70000000e+01 
482.205  1.90000000e+01 
482.170  2.50000000e+01 
482.134  2.70000000e+01 
482.098  2.40000000e+01 
482.062  2.90000000e+01 
482.026  2.60000000e+01 
481.990  3.10000000e+01 
481.954  2.90000000e+01 
481.918  2.40000000e+01 
481.882  3.20000000e+01 
481.846  3.00000000e+01 
481.810  3.50000000e+01 
481.774  3.40000000e+01 
481.738  2.90000000e+01 
481.702  2.60000000e+01 
481.666  2.80000000e+01 
481.630  2.50000000e+01 
481.595  2.80000000e+01 
481.559  3.40000000e+01 
481.523  3.30000000e+01 
481.487  2.40000000e+01 
481.451  2.70000000e+01 
481.415  2.90000000e+01 
481.379  2.90000000e+01 
481.343  1.90000000e+01 
481.307  3.00000000e+01 
481.271  3.20000000e+01 
481.235  2.60000000e+01 
481.199  3.00000000e+01 
481.163  2.60000000e+01 
481.127  2.80000000e+01 
481.091  3.20000000e+01 
481.055  2.60000000e+01 
481.020  3.20000000e+01 
480.984  3.20000000e+01 
480.948  3.20000000e+01 
480.912  2.90000000e+01 
480.876  3.40000000e+01 
480.840  4.00000000e+01 
480.804  2.60000000e+01 
480.768  2.80000000e+01 
480.732  2.30000000e+01 
480.696  2.80000000e+01 
480.660  3.10000000e+01 
480.624  2.50000000e+01 
480.588  2.10000000e+01 
480.552  2.40000000e+01 
480.516  3.30000000e+01 
480.480  2.30000000e+01 
480.445  2.90000000e+01 
480.409  1.90000000e+01 
480.373  2.80000000e+01 
480.337  2.50000000e+01 
480.301  2.70000000e+01 
480.265  2.20000000e+01 
480.229  2.00000000e+01 
480.193  4.00000000e+01 
480.157  2.20000000e+01 
480.121  2.30000000e+01 
480.085  2.50000000e+01 
480.049  2.50000000e+01 
480.013  3.60000000e+01 
479.977  2.30000000e+01 
479.941  2.40000000e+01 
479.905  1.90000000e+01 
479.870  3.50000000e+01 
479.834  3.30000000e+01 
479.798  3.50000000e+01 
479.762  1.70000000e+01 
479.726  2.20000000e+01 
479.690  2.70000000e+01 
479.654  2.30000000e+01 
479.618  3.00000000e+01 
479.582  2.70000000e+01 
479.546  2.30000000e+01 
479.510  3.20000000e+01 
479.474  2.60000000e+01 
479.438  3.10000000e+01 
479.402  3.20000000e+01 
479.366  2.50000000e+01 
479.330  3.00000000e+01 
479.295  2.20000000e+01 
479.259  2.50000000e+01 
479.223  3.00000000e+01 
479.187  3.40000000e+01 
479.151  3.30000000e+01 
479.115  3.30000000e+01 
479.079  2.80000000e+01 
479.043  3.70000000e+01 
479.007  2.60000000e+01 
478.971  2.80000000e+01 
478.935  2.00000000e+01 
478.899  1.90000000e+01 
478.863  2.80000000e+01 
478.827  3.00000000e+01 
478.791  2.60000000e+01 
478.755  2.20000000e+01 
478.720  2.20000000e+01 
478.684  2.90000000e+01 
478.648  2.40000000e+01 
478.612  3.40000000e+01 
478.576  3.20000000e+01 
478.540  2.80000000e+01 
478.504  2.30000000e+01 
478.468  2.30000000e+01 
478.432  2.40000000e+01 
478.396  2.60000000e+01 
478.360  3.00000000e+01 
478.324  3.40000000e+01 
478.288  2.60000000e+01 
478.252  2.00000000e+01 
478.216  1.80000000e+01 
478.180  2.40000000e+01 
478.145  2.80000000e+01 
478.109  2.30000000e+01 
478.073  2.10000000e+01 
478.037  3.20000000e+01 
478.001  2.30000000e+01 
477.965  2.90000000e+01 
477.929  3.30000000e+01 
477.893  1.80000000e+01 
477.857  2.00000000e+01 
477.821  3.20000000e+01 
477.785  3.10000000e+01 
477.749  2.50000000e+01 
477.713  3.80000000e+01 
477.677  2.80000000e+01 
477.641  2.10000000e+01 
477.605  2.30000000e+01 
477.570  2.70000000e+01 
477.534  3.40000000e+01 
477.498  3.30000000e+01 
477.462  2.90000000e+01 
477.426  2.30000000e+01 
477.390  2.80000000e+01 
477.354  4.00000000e+01 
477.318  2.60000000e+01 
477.282  2.70000000e+01 
477.246  2.60000000e+01 
477.210  2.80000000e+01 
477.174  2.70000000e+01 
477.138  1.80000000e+01 
477.102  2.20000000e+01 
477.066  2.20000000e+01 
477.030  2.60000000e+01 
476.995  2.00000000e+01 
476.959  2.60000000e+01 
476.923  2.60000000e+01 
476.887  2.20000000e+01 
476.851  3.00000000e+01 
476.815  3.20000000e+01 
476.779  2.50000000e+01 
476.743  2.60000000e+01 
476.707  3.40000000e+01 
476.671  1.70000000e+01 
476.635  3.50000000e+01 
476.599  3.00000000e+01 
476.563  2.70000000e+01 
476.527  2.60000000e+01 
476.491  2.20000000e+01 
476.455  2.50000000e+01 
476.420  2.40000000e+01 
476.384  3.10000000e+01 
476.348  3.00000000e+01 
476.312  2.90000000e+01 
476.276  2.90000000e+01 
476.240  3.20000000e+01 
476.204  3.10000000e+01 
476.168  3.30000000e+01 
476.132  2.70000000e+01 
476.096  2.50000000e+01 
476.060  3.10000000e+01 
476.024  3.40000000e+01 
475.988  3.00000000e+01 
475.952  3.10000000e+01 
475.916  2.50000000e+01 
475.880  2.40000000e+01 
475.845  2.80000000e+01 
475.809  2.20000000e+01 
475.773  2.50000000e+01 
475.737  3.50000000e+01 
475.701  2.00000000e+01 
475.665  2.50000000e+01 
475.629  3.20000000e+01 
475.593  2.30000000e+01 
475.557  2.50000000e+01 
475.521  3.20000000e+01 
475.485  3.50000000e+01 
475.449  2.70000000e+01 
475.413  1.20000000e+01 
475.377  2.30000000e+01 
475.341  3.30000000e+01 
475.305  2.50000000e+01 
475.270  2.50000000e+01 
475.234  3.20000000e+01 
475.198  3.10000000e+01 
475.162  2.80000000e+01 
475.126  2.90000000e+01 
475.090  3.70000000e+01 
475.054  3.00000000e+01 
475.018  2.90000000e+01 
474.982  3.00000000e+01 
474.946  2.30000000e+01 
474.910  3.40000000e+01 
474.874  3.40000000e+01 
474.838  3.50000000e+01 
474.802  2.80000000e+01 
474.766  2.30000000e+01 
474.730  2.00000000e+01 
474.695  3.00000000e+01 
474.659  2.50000000e+01 
474.623  1.90000000e+01 
474.587  3.10000000e+01 
474.551  1.90000000e+01 
474.515  4.00000000e+01 
474.479  2.20000000e+01 
474.443  2.40000000e+01 
474.407  3.30000000e+01 
474.371  3.20000000e+01 
474.335  3.20000000e+01 
474.299  2.60000000e+01 
474.263  2.60000000e+01 
474.227  2.90000000e+01 
474.191  2.80000000e+01 
474.155  1.60000000e+01 
474.120  2.10000000e+01 
474.084  2.50000000e+01 
474.048  2.70000000e+01 
474.012  2.70000000e+01 
473.976  2.70000000e+01 
473.940  3.30000000e+01 
473.904  1.80000000e+01 
473.868  2.70000000e+01 
473.832  3.10000000e+01 
473.796  2.40000000e+01 
473.760  2.90000000e+01 
473.724  2.70000000e+01 
473.688  2.70000000e+01 
473.652  2.10000000e+01 
473.616  2.40000000e+01 
473.580  2.30000000e+01 
473.545  3.10000000e+01 
473.509  2.80000000e+01 
473.473  2.20000000e+01 
473.437  2.20000000e+01 
473.401  2.60000000e+01 
473.365  2.90000000e+01 
473.329  2.70000000e+01 
473.293  2.40000000e+01 
473.257  2.70000000e+01 
473.221  3.40000000e+01 
473.185  2.20000000e+01 
473.149  1.70000000e+01 
473.113  2.70000000e+01 
473.077  3.30000000e+01 
473.041  3.30000000e+01 
473.005  2.90000000e+01 
472.970  2.80000000e+01 
472.934  3.60000000e+01 
472.898  2.70000000e+01 
472.862  2.10000000e+01 
472.826  2.80000000e+01 
472.790  1.70000000e+01 
472.754  2.90000000e+01 
472.718  2.70000000e+01 
472.682  2.50000000e+01 
472.646  2.70000000e+01 
472.610  2.70000000e+01 
472.574  2.50000000e+01 
472.538  1.70000000e+01 
472.502  2.90000000e+01 
472.466  2.50000000e+01 
472.430  2.00000000e+01 
472.395  2.80000000e+01 
472.359  2.50000000e+01 
472.323  3.10000000e+01 
472.287  2.20000000e+01 
472.251  2.60000000e+01 
472.215  2.40000000e+01 
472.179  3.10000000e+01 
472.143  1.90000000e+01 
472.107  2.60000000e+01 
472.071  3.00000000e+01 
472.035  2.00000000e+01 
471.999  3.20000000e+01 
471.963  3.50000000e+01 
471.927  2.60000000e+01 
471.891  3.00000000e+01 
471.855  2.60000000e+01 
471.820  3.40000000e+01 
471.784  2.40000000e+01 
471.748  3.40000000e+01 
471.712  2.50000000e+01 
471.676  1.50000000e+01 
471.640  2.50000000e+01 
471.604  2.50000000e+01 
471.568  2.30000000e+01 
471.532  2.30000000e+01 
471.496  2.00000000e+01 
471.460  3.20000000e+01 
471.424  1.80000000e+01 
471.388  2.70000000e+01 
471.352  3.20000000e+01 
471.316  3.20000000e+01 
471.280  2.60000000e+01 
471.245  1.70000000e+01 
471.209  2.60000000e+01 
471.173  2.80000000e+01 
471.137  2.70000000e+01 
471.101  2.00000000e+01 
471.065  2.70000000e+01 
471.029  1.90000000e+01 
470.993  3.50000000e+01 
470.957  2.50000000e+01 
470.921  2.30000000e+01 
470.885  2.70000000e+01 
470.849  2.40000000e+01 
470.813  2.30000000e+01 
470.777  2.40000000e+01 
470.741  2.40000000e+01 
470.705  2.90000000e+01 
470.670  2.40000000e+01 
470.634  2.10000000e+01 
470.598  2.90000000e+01 
470.562  3.20000000e+01 
470.526  3.60000000e+01 
470.490  2.90000000e+01 
470.454  2.60000000e+01 
470.418  3.40000000e+01 
470.382  2.40000000e+01 
470.346  2.90000000e+01 
470.310  2.00000000e+01 
470.274  2.20000000e+01 
470.238  3.00000000e+01 
470.202  2.30000000e+01 
470.166  2.40000000e+01 
470.130  3.20000000e+01 
470.095  1.40000000e+01 
470.059  2.00000000e+01 
470.023  3.00000000e+01 

