EXPERIMENT FILE
Version = 2

[ Experiment Parameters ]
Experiment Description= <none> 
Number_of_Regions_in_Experiment= 1 

Original_File_name= c:\alexesca\data\detector\sample22.xps 
Instrument= HP ESCA West
Date= 01-22-2006
Time=  17:00:57

[ Layer Parameters ]
Layer_Type= XPS

[ Region 1 Parameters ]
Region_Description = vb                                 
BEcenter(eV) = 100.000000
BEwidth(eV) = 200.000000
BEstep(eV) = 0.179688
Dwell_Time(sec) = 0.250000
N_o_scans = 2  
N_o_Channels = 1109  
Scan_mode = 0  (DITHERED)

[ L= 1 R= 1 ]
BEcenter= 100.000 
BEwidth= -199.813
Excitation= 1486.600
Time_p_channel= 25.600  
Size= 1113
199.906  2.40000000e+01 
199.727  2.40000000e+01 
199.547  2.00000000e+01 
199.367  2.20000000e+01 
199.188  1.50000000e+01 
199.008  2.30000000e+01 
198.828  2.10000000e+01 
198.648  1.90000000e+01 
198.469  2.50000000e+01 
198.289  1.80000000e+01 
198.109  1.60000000e+01 
197.930  1.90000000e+01 
197.750  2.20000000e+01 
197.570  2.20000000e+01 
197.391  2.10000000e+01 
197.211  1.30000000e+01 
197.031  2.30000000e+01 
196.852  2.00000000e+01 
196.672  2.20000000e+01 
196.492  2.00000000e+01 
196.313  2.00000000e+01 
196.133  2.10000000e+01 
195.953  2.70000000e+01 
195.773  1.50000000e+01 
195.594  2.40000000e+01 
195.414  1.50000000e+01 
195.234  2.20000000e+01 
195.055  2.40000000e+01 
194.875  1.60000000e+01 
194.695  2.60000000e+01 
194.516  2.40000000e+01 
194.336  1.90000000e+01 
194.156  1.90000000e+01 
193.977  2.70000000e+01 
193.797  1.40000000e+01 
193.617  1.60000000e+01 
193.438  1.50000000e+01 
193.258  2.50000000e+01 
193.078  1.00000000e+01 
192.898  9.00000000e+00 
192.719  2.40000000e+01 
192.539  1.80000000e+01 
192.359  1.90000000e+01 
192.180  2.30000000e+01 
192.000  1.80000000e+01 
191.820  1.70000000e+01 
191.641  1.40000000e+01 
191.461  2.00000000e+01 
191.281  2.60000000e+01 
191.102  2.60000000e+01 
190.922  1.70000000e+01 
190.742  2.50000000e+01 
190.563  2.00000000e+01 
190.383  1.90000000e+01 
190.203  1.30000000e+01 
190.023  1.70000000e+01 
189.844  1.70000000e+01 
189.664  1.60000000e+01 
189.484  2.10000000e+01 
189.305  1.70000000e+01 
189.125  2.20000000e+01 
188.945  1.80000000e+01 
188.766  1.60000000e+01 
188.586  2.40000000e+01 
188.406  1.70000000e+01 
188.227  2.30000000e+01 
188.047  2.70000000e+01 
187.867  2.30000000e+01 
187.688  1.90000000e+01 
187.508  1.30000000e+01 
187.328  1.60000000e+01 
187.148  1.70000000e+01 
186.969  1.70000000e+01 
186.789  2.30000000e+01 
186.609  2.20000000e+01 
186.430  2.00000000e+01 
186.250  1.90000000e+01 
186.070  2.00000000e+01 
185.891  2.40000000e+01 
185.711  2.10000000e+01 
185.531  1.40000000e+01 
185.352  1.10000000e+01 
185.172  1.60000000e+01 
184.992  1.10000000e+01 
184.813  1.70000000e+01 
184.633  1.80000000e+01 
184.453  1.90000000e+01 
184.273  1.90000000e+01 
184.094  1.80000000e+01 
183.914  1.90000000e+01 
183.734  1.70000000e+01 
183.555  1.50000000e+01 
183.375  1.40000000e+01 
183.195  1.80000000e+01 
183.016  1.10000000e+01 
182.836  1.50000000e+01 
182.656  1.00000000e+01 
182.477  2.50000000e+01 
182.297  2.20000000e+01 
182.117  1.80000000e+01 
181.938  2.30000000e+01 
181.758  1.80000000e+01 
181.578  2.20000000e+01 
181.398  8.00000000e+00 
181.219  2.20000000e+01 
181.039  1.50000000e+01 
180.859  1.90000000e+01 
180.680  1.30000000e+01 
180.500  1.70000000e+01 
180.320  1.60000000e+01 
180.141  2.00000000e+01 
179.961  2.20000000e+01 
179.781  1.40000000e+01 
179.602  1.60000000e+01 
179.422  2.50000000e+01 
179.242  1.70000000e+01 
179.062  1.00000000e+01 
178.883  1.10000000e+01 
178.703  2.60000000e+01 
178.523  1.50000000e+01 
178.344  2.00000000e+01 
178.164  1.50000000e+01 
177.984  1.40000000e+01 
177.805  2.10000000e+01 
177.625  2.40000000e+01 
177.445  1.90000000e+01 
177.266  1.30000000e+01 
177.086  1.70000000e+01 
176.906  2.10000000e+01 
176.727  2.10000000e+01 
176.547  2.30000000e+01 
176.367  1.70000000e+01 
176.188  1.40000000e+01 
176.008  2.10000000e+01 
175.828  1.10000000e+01 
175.648  2.50000000e+01 
175.469  2.10000000e+01 
175.289  2.10000000e+01 
175.109  2.80000000e+01 
174.930  1.60000000e+01 
174.750  2.30000000e+01 
174.570  2.10000000e+01 
174.391  2.10000000e+01 
174.211  2.20000000e+01 
174.031  2.40000000e+01 
173.852  1.60000000e+01 
173.672  2.10000000e+01 
173.492  3.80000000e+01 
173.312  2.70000000e+01 
173.133  1.80000000e+01 
172.953  3.00000000e+01 
172.773  2.60000000e+01 
172.594  2.80000000e+01 
172.414  2.10000000e+01 
172.234  1.50000000e+01 
172.055  1.90000000e+01 
171.875  2.50000000e+01 
171.695  1.80000000e+01 
171.516  1.40000000e+01 
171.336  2.60000000e+01 
171.156  1.90000000e+01 
170.977  2.00000000e+01 
170.797  2.10000000e+01 
170.617  2.30000000e+01 
170.438  1.80000000e+01 
170.258  2.30000000e+01 
170.078  2.00000000e+01 
169.898  2.40000000e+01 
169.719  2.10000000e+01 
169.539  1.70000000e+01 
169.359  2.20000000e+01 
169.180  1.90000000e+01 
169.000  1.50000000e+01 
168.820  2.90000000e+01 
168.641  3.20000000e+01 
168.461  2.70000000e+01 
168.281  1.70000000e+01 
168.102  2.30000000e+01 
167.922  2.00000000e+01 
167.742  2.20000000e+01 
167.562  1.60000000e+01 
167.383  1.50000000e+01 
167.203  2.20000000e+01 
167.023  2.60000000e+01 
166.844  2.60000000e+01 
166.664  1.70000000e+01 
166.484  1.80000000e+01 
166.305  2.00000000e+01 
166.125  1.80000000e+01 
165.945  2.40000000e+01 
165.766  2.00000000e+01 
165.586  1.20000000e+01 
165.406  1.00000000e+01 
165.227  1.70000000e+01 
165.047  2.20000000e+01 
164.867  1.60000000e+01 
164.688  1.80000000e+01 
164.508  1.70000000e+01 
164.328  2.00000000e+01 
164.148  2.10000000e+01 
163.969  1.90000000e+01 
163.789  2.00000000e+01 
163.609  1.60000000e+01 
163.430  2.20000000e+01 
163.250  2.10000000e+01 
163.070  2.20000000e+01 
162.891  2.70000000e+01 
162.711  1.80000000e+01 
162.531  1.60000000e+01 
162.352  1.30000000e+01 
162.172  1.90000000e+01 
161.992  1.00000000e+01 
161.812  1.70000000e+01 
161.633  1.60000000e+01 
161.453  1.70000000e+01 
161.273  1.20000000e+01 
161.094  2.10000000e+01 
160.914  2.00000000e+01 
160.734  1.60000000e+01 
160.555  1.30000000e+01 
160.375  2.50000000e+01 
160.195  1.70000000e+01 
160.016  2.90000000e+01 
159.836  2.20000000e+01 
159.656  1.30000000e+01 
159.477  2.00000000e+01 
159.297  2.10000000e+01 
159.117  2.00000000e+01 
158.938  1.40000000e+01 
158.758  1.10000000e+01 
158.578  1.60000000e+01 
158.398  2.00000000e+01 
158.219  2.20000000e+01 
158.039  2.10000000e+01 
157.859  1.20000000e+01 
157.680  2.00000000e+01 
157.500  2.00000000e+01 
157.320  2.40000000e+01 
157.141  1.70000000e+01 
156.961  1.40000000e+01 
156.781  2.20000000e+01 
156.602  1.50000000e+01 
156.422  1.60000000e+01 
156.242  1.60000000e+01 
156.062  2.00000000e+01 
155.883  1.00000000e+01 
155.703  1.60000000e+01 
155.523  1.60000000e+01 
155.344  1.70000000e+01 
155.164  1.30000000e+01 
154.984  1.70000000e+01 
154.805  1.50000000e+01 
154.625  1.60000000e+01 
154.445  1.70000000e+01 
154.266  1.90000000e+01 
154.086  1.90000000e+01 
153.906  1.60000000e+01 
153.727  1.90000000e+01 
153.547  1.80000000e+01 
153.367  2.10000000e+01 
153.188  1.90000000e+01 
153.008  1.50000000e+01 
152.828  1.70000000e+01 
152.648  1.00000000e+01 
152.469  1.00000000e+01 
152.289  1.90000000e+01 
152.109  1.50000000e+01 
151.930  1.30000000e+01 
151.750  1.50000000e+01 
151.570  1.40000000e+01 
151.391  1.50000000e+01 
151.211  9.00000000e+00 
151.031  1.00000000e+01 
150.852  1.80000000e+01 
150.672  1.60000000e+01 
150.492  1.80000000e+01 
150.312  1.40000000e+01 
150.133  1.40000000e+01 
149.953  1.60000000e+01 
149.773  1.70000000e+01 
149.594  8.00000000e+00 
149.414  1.60000000e+01 
149.234  1.30000000e+01 
149.055  1.70000000e+01 
148.875  1.50000000e+01 
148.695  1.40000000e+01 
148.516  2.20000000e+01 
148.336  1.20000000e+01 
148.156  2.40000000e+01 
147.977  2.90000000e+01 
147.797  2.40000000e+01 
147.617  2.30000000e+01 
147.438  3.00000000e+01 
147.258  2.10000000e+01 
147.078  2.70000000e+01 
146.898  3.20000000e+01 
146.719  2.20000000e+01 
146.539  1.90000000e+01 
146.359  2.00000000e+01 
146.180  1.80000000e+01 
146.000  2.00000000e+01 
145.820  2.00000000e+01 
145.641  1.40000000e+01 
145.461  1.40000000e+01 
145.281  1.70000000e+01 
145.102  1.50000000e+01 
144.922  1.50000000e+01 
144.742  2.40000000e+01 
144.562  1.40000000e+01 
144.383  2.10000000e+01 
144.203  1.30000000e+01 
144.023  2.00000000e+01 
143.844  1.60000000e+01 
143.664  1.70000000e+01 
143.484  2.20000000e+01 
143.305  2.20000000e+01 
143.125  2.10000000e+01 
142.945  3.80000000e+01 
142.766  3.10000000e+01 
142.586  2.50000000e+01 
142.406  2.70000000e+01 
142.227  2.40000000e+01 
142.047  3.10000000e+01 
141.867  2.10000000e+01 
141.688  7.00000000e+00 
141.508  2.00000000e+01 
141.328  2.30000000e+01 
141.148  9.00000000e+00 
140.969  1.60000000e+01 
140.789  1.50000000e+01 
140.609  1.40000000e+01 
140.430  1.90000000e+01 
140.250  1.50000000e+01 
140.070  8.00000000e+00 
139.891  6.00000000e+00 
139.711  1.30000000e+01 
139.531  1.20000000e+01 
139.352  1.60000000e+01 
139.172  1.50000000e+01 
138.992  2.20000000e+01 
138.812  1.60000000e+01 
138.633  2.10000000e+01 
138.453  1.30000000e+01 
138.273  1.40000000e+01 
138.094  1.40000000e+01 
137.914  1.50000000e+01 
137.734  1.30000000e+01 
137.555  1.70000000e+01 
137.375  1.70000000e+01 
137.195  1.30000000e+01 
137.016  2.00000000e+01 
136.836  1.00000000e+01 
136.656  1.00000000e+01 
136.477  1.00000000e+01 
136.297  9.00000000e+00 
136.117  1.30000000e+01 
135.938  1.40000000e+01 
135.758  2.10000000e+01 
135.578  1.20000000e+01 
135.398  1.60000000e+01 
135.219  1.10000000e+01 
135.039  1.80000000e+01 
134.859  1.50000000e+01 
134.680  1.30000000e+01 
134.500  1.20000000e+01 
134.320  1.00000000e+01 
134.141  1.00000000e+01 
133.961  1.30000000e+01 
133.781  8.00000000e+00 
133.602  1.60000000e+01 
133.422  9.00000000e+00 
133.242  1.30000000e+01 
133.062  1.10000000e+01 
132.883  1.00000000e+01 
132.703  1.20000000e+01 
132.523  2.50000000e+01 
132.344  2.00000000e+01 
132.164  1.70000000e+01 
131.984  7.00000000e+00 
131.805  9.00000000e+00 
131.625  1.80000000e+01 
131.445  9.00000000e+00 
131.266  1.30000000e+01 
131.086  1.40000000e+01 
130.906  8.00000000e+00 
130.727  1.40000000e+01 
130.547  1.00000000e+01 
130.367  1.10000000e+01 
130.188  1.20000000e+01 
130.008  1.20000000e+01 
129.828  1.40000000e+01 
129.648  7.00000000e+00 
129.469  1.00000000e+01 
129.289  1.00000000e+01 
129.109  1.40000000e+01 
128.930  2.00000000e+01 
128.750  1.60000000e+01 
128.570  1.00000000e+01 
128.391  1.30000000e+01 
128.211  8.00000000e+00 
128.031  1.40000000e+01 
127.852  1.60000000e+01 
127.672  1.10000000e+01 
127.492  1.40000000e+01 
127.312  1.10000000e+01 
127.133  1.90000000e+01 
126.953  1.30000000e+01 
126.773  1.50000000e+01 
126.594  8.00000000e+00 
126.414  1.00000000e+01 
126.234  1.10000000e+01 
126.055  1.50000000e+01 
125.875  1.50000000e+01 
125.695  8.00000000e+00 
125.516  1.70000000e+01 
125.336  1.40000000e+01 
125.156  1.00000000e+01 
124.977  1.10000000e+01 
124.797  1.20000000e+01 
124.617  8.00000000e+00 
124.438  7.00000000e+00 
124.258  1.20000000e+01 
124.078  1.40000000e+01 
123.898  1.00000000e+01 
123.719  1.30000000e+01 
123.539  1.20000000e+01 
123.359  7.00000000e+00 
123.180  1.20000000e+01 
123.000  1.40000000e+01 
122.820  8.00000000e+00 
122.641  1.50000000e+01 
122.461  9.00000000e+00 
122.281  1.20000000e+01 
122.102  1.20000000e+01 
121.922  1.90000000e+01 
121.742  6.00000000e+00 
121.562  7.00000000e+00 
121.383  7.00000000e+00 
121.203  1.30000000e+01 
121.023  1.00000000e+01 
120.844  5.00000000e+00 
120.664  1.00000000e+01 
120.484  1.50000000e+01 
120.305  1.50000000e+01 
120.125  1.50000000e+01 
119.945  1.10000000e+01 
119.766  1.20000000e+01 
119.586  1.50000000e+01 
119.406  1.00000000e+01 
119.227  1.50000000e+01 
119.047  6.00000000e+00 
118.867  1.80000000e+01 
118.688  1.60000000e+01 
118.508  1.20000000e+01 
118.328  1.10000000e+01 
118.148  1.10000000e+01 
117.969  1.10000000e+01 
117.789  1.30000000e+01 
117.609  1.60000000e+01 
117.430  1.10000000e+01 
117.250  1.80000000e+01 
117.070  1.00000000e+01 
116.891  9.00000000e+00 
116.711  8.00000000e+00 
116.531  1.80000000e+01 
116.352  7.00000000e+00 
116.172  1.40000000e+01 
115.992  1.50000000e+01 
115.812  1.80000000e+01 
115.633  1.70000000e+01 
115.453  9.00000000e+00 
115.273  1.50000000e+01 
115.094  1.80000000e+01 
114.914  2.10000000e+01 
114.734  1.70000000e+01 
114.555  1.20000000e+01 
114.375  1.60000000e+01 
114.195  1.40000000e+01 
114.016  1.40000000e+01 
113.836  1.30000000e+01 
113.656  1.80000000e+01 
113.477  1.60000000e+01 
113.297  1.30000000e+01 
113.117  2.10000000e+01 
112.938  1.00000000e+01 
112.758  1.40000000e+01 
112.578  1.40000000e+01 
112.398  1.20000000e+01 
112.219  1.00000000e+01 
112.039  1.10000000e+01 
111.859  8.00000000e+00 
111.680  1.50000000e+01 
111.500  9.00000000e+00 
111.320  7.00000000e+00 
111.141  1.10000000e+01 
110.961  1.30000000e+01 
110.781  1.20000000e+01 
110.602  1.50000000e+01 
110.422  1.20000000e+01 
110.242  1.20000000e+01 
110.062  1.30000000e+01 
109.883  1.50000000e+01 
109.703  8.00000000e+00 
109.523  1.10000000e+01 
109.344  1.10000000e+01 
109.164  1.50000000e+01 
108.984  1.40000000e+01 
108.805  1.40000000e+01 
108.625  1.60000000e+01 
108.445  1.30000000e+01 
108.266  1.40000000e+01 
108.086  1.60000000e+01 
107.906  1.60000000e+01 
107.727  1.30000000e+01 
107.547  1.10000000e+01 
107.367  1.30000000e+01 
107.188  1.40000000e+01 
107.008  2.00000000e+01 
106.828  2.10000000e+01 
106.648  2.10000000e+01 
106.469  1.90000000e+01 
106.289  1.70000000e+01 
106.109  1.70000000e+01 
105.930  9.00000000e+00 
105.750  1.10000000e+01 
105.570  1.70000000e+01 
105.391  1.40000000e+01 
105.211  1.20000000e+01 
105.031  1.00000000e+01 
104.852  1.70000000e+01 
104.672  1.50000000e+01 
104.492  8.00000000e+00 
104.312  8.00000000e+00 
104.133  1.20000000e+01 
103.953  3.00000000e+00 
103.773  1.60000000e+01 
103.594  7.00000000e+00 
103.414  1.60000000e+01 
103.234  1.70000000e+01 
103.055  1.60000000e+01 
102.875  1.20000000e+01 
102.695  1.10000000e+01 
102.516  8.00000000e+00 
102.336  1.50000000e+01 
102.156  8.00000000e+00 
101.977  1.90000000e+01 
101.797  2.00000000e+01 
101.617  8.00000000e+00 
101.438  8.00000000e+00 
101.258  8.00000000e+00 
101.078  1.00000000e+01 
100.898  1.20000000e+01 
100.719  1.30000000e+01 
100.539  1.20000000e+01 
100.359  1.00000000e+01 
100.180  1.70000000e+01 
100.000  1.00000000e+01 
99.820   1.30000000e+01 
99.641   8.00000000e+00 
99.461   5.00000000e+00 
99.281   1.80000000e+01 
99.102   9.00000000e+00 
98.922   1.10000000e+01 
98.742   1.90000000e+01 
98.562   9.00000000e+00 
98.383   1.30000000e+01 
98.203   1.00000000e+01 
98.023   1.30000000e+01 
97.844   8.00000000e+00 
97.664   1.70000000e+01 
97.484   1.60000000e+01 
97.305   2.00000000e+01 
97.125   1.40000000e+01 
96.945   1.40000000e+01 
96.766   1.40000000e+01 
96.586   1.30000000e+01 
96.406   1.30000000e+01 
96.227   1.60000000e+01 
96.047   1.30000000e+01 
95.867   1.00000000e+01 
95.688   9.00000000e+00 
95.508   8.00000000e+00 
95.328   1.20000000e+01 
95.148   1.40000000e+01 
94.969   7.00000000e+00 
94.789   1.50000000e+01 
94.609   1.40000000e+01 
94.430   9.00000000e+00 
94.250   1.50000000e+01 
94.070   8.00000000e+00 
93.891   2.00000000e+01 
93.711   1.60000000e+01 
93.531   1.30000000e+01 
93.352   1.70000000e+01 
93.172   1.30000000e+01 
92.992   1.50000000e+01 
92.812   6.00000000e+00 
92.633   1.00000000e+01 
92.453   1.00000000e+01 
92.273   8.00000000e+00 
92.094   1.50000000e+01 
91.914   1.10000000e+01 
91.734   9.00000000e+00 
91.555   9.00000000e+00 
91.375   9.00000000e+00 
91.195   1.60000000e+01 
91.016   7.00000000e+00 
90.836   1.50000000e+01 
90.656   1.10000000e+01 
90.477   8.00000000e+00 
90.297   1.70000000e+01 
90.117   8.00000000e+00 
89.938   1.70000000e+01 
89.758   1.90000000e+01 
89.578   1.10000000e+01 
89.398   1.40000000e+01 
89.219   2.00000000e+01 
89.039   9.00000000e+00 
88.859   1.10000000e+01 
88.680   8.00000000e+00 
88.500   1.50000000e+01 
88.320   5.00000000e+00 
88.141   1.00000000e+01 
87.961   1.00000000e+01 
87.781   2.30000000e+01 
87.602   9.00000000e+00 
87.422   2.40000000e+01 
87.242   1.00000000e+01 
87.062   1.30000000e+01 
86.883   1.10000000e+01 
86.703   1.80000000e+01 
86.523   1.30000000e+01 
86.344   9.00000000e+00 
86.164   6.00000000e+00 
85.984   1.30000000e+01 
85.805   1.00000000e+01 
85.625   9.00000000e+00 
85.445   8.00000000e+00 
85.266   7.00000000e+00 
85.086   1.20000000e+01 
84.906   1.30000000e+01 
84.727   1.10000000e+01 
84.547   1.30000000e+01 
84.367   1.80000000e+01 
84.188   1.30000000e+01 
84.008   9.00000000e+00 
83.828   5.00000000e+00 
83.648   8.00000000e+00 
83.469   1.10000000e+01 
83.289   1.50000000e+01 
83.109   8.00000000e+00 
82.930   9.00000000e+00 
82.750   9.00000000e+00 
82.570   1.50000000e+01 
82.391   9.00000000e+00 
82.211   1.30000000e+01 
82.031   2.10000000e+01 
81.852   7.00000000e+00 
81.672   8.00000000e+00 
81.492   9.00000000e+00 
81.312   1.00000000e+01 
81.133   1.00000000e+01 
80.953   8.00000000e+00 
80.773   1.20000000e+01 
80.594   1.20000000e+01 
80.414   1.10000000e+01 
80.234   9.00000000e+00 
80.055   1.00000000e+01 
79.875   8.00000000e+00 
79.695   1.10000000e+01 
79.516   1.20000000e+01 
79.336   9.00000000e+00 
79.156   1.00000000e+01 
78.977   9.00000000e+00 
78.797   1.00000000e+01 
78.617   1.40000000e+01 
78.438   1.50000000e+01 
78.258   7.00000000e+00 
78.078   1.40000000e+01 
77.898   8.00000000e+00 
77.719   1.30000000e+01 
77.539   9.00000000e+00 
77.359   1.50000000e+01 
77.180   1.10000000e+01 
77.000   8.00000000e+00 
76.820   4.00000000e+00 
76.641   9.00000000e+00 
76.461   7.00000000e+00 
76.281   1.00000000e+01 
76.102   9.00000000e+00 
75.922   1.30000000e+01 
75.742   1.40000000e+01 
75.562   6.00000000e+00 
75.383   1.30000000e+01 
75.203   1.40000000e+01 
75.023   6.00000000e+00 
74.844   7.00000000e+00 
74.664   1.00000000e+01 
74.484   8.00000000e+00 
74.305   9.00000000e+00 
74.125   6.00000000e+00 
73.945   1.00000000e+01 
73.766   8.00000000e+00 
73.586   1.80000000e+01 
73.406   8.00000000e+00 
73.227   7.00000000e+00 
73.047   9.00000000e+00 
72.867   9.00000000e+00 
72.688   4.00000000e+00 
72.508   9.00000000e+00 
72.328   1.30000000e+01 
72.148   1.70000000e+01 
71.969   9.00000000e+00 
71.789   4.00000000e+00 
71.609   9.00000000e+00 
71.430   1.30000000e+01 
71.250   9.00000000e+00 
71.070   6.00000000e+00 
70.891   9.00000000e+00 
70.711   2.00000000e+00 
70.531   6.00000000e+00 
70.352   8.00000000e+00 
70.172   1.30000000e+01 
69.992   6.00000000e+00 
69.812   1.30000000e+01 
69.633   1.40000000e+01 
69.453   6.00000000e+00 
69.273   1.20000000e+01 
69.094   1.00000000e+01 
68.914   8.00000000e+00 
68.734   1.30000000e+01 
68.555   1.50000000e+01 
68.375   1.50000000e+01 
68.195   2.10000000e+01 
68.016   2.80000000e+01 
67.836   1.40000000e+01 
67.656   2.80000000e+01 
67.477   1.70000000e+01 
67.297   1.90000000e+01 
67.117   1.50000000e+01 
66.938   1.50000000e+01 
66.758   1.40000000e+01 
66.578   1.40000000e+01 
66.398   1.50000000e+01 
66.219   1.00000000e+01 
66.039   1.10000000e+01 
65.859   1.20000000e+01 
65.680   7.00000000e+00 
65.500   7.00000000e+00 
65.320   1.20000000e+01 
65.141   1.00000000e+01 
64.961   8.00000000e+00 
64.781   4.00000000e+00 
64.602   7.00000000e+00 
64.422   8.00000000e+00 
64.242   1.00000000e+01 
64.062   9.00000000e+00 
63.883   9.00000000e+00 
63.703   9.00000000e+00 
63.523   1.10000000e+01 
63.344   9.00000000e+00 
63.164   1.20000000e+01 
62.984   9.00000000e+00 
62.805   4.00000000e+00 
62.625   8.00000000e+00 
62.445   4.00000000e+00 
62.266   7.00000000e+00 
62.086   1.20000000e+01 
61.906   5.00000000e+00 
61.727   6.00000000e+00 
61.547   8.00000000e+00 
61.367   7.00000000e+00 
61.187   9.00000000e+00 
61.008   1.00000000e+01 
60.828   8.00000000e+00 
60.648   1.40000000e+01 
60.469   7.00000000e+00 
60.289   7.00000000e+00 
60.109   4.00000000e+00 
59.930   1.10000000e+01 
59.750   6.00000000e+00 
59.570   3.00000000e+00 
59.391   7.00000000e+00 
59.211   5.00000000e+00 
59.031   1.10000000e+01 
58.852   1.20000000e+01 
58.672   8.00000000e+00 
58.492   1.00000000e+01 
58.312   1.10000000e+01 
58.133   3.00000000e+00 
57.953   4.00000000e+00 
57.773   5.00000000e+00 
57.594   7.00000000e+00 
57.414   7.00000000e+00 
57.234   4.00000000e+00 
57.055   5.00000000e+00 
56.875   4.00000000e+00 
56.695   8.00000000e+00 
56.516   8.00000000e+00 
56.336   6.00000000e+00 
56.156   1.00000000e+01 
55.977   1.10000000e+01 
55.797   9.00000000e+00 
55.617   5.00000000e+00 
55.437   1.00000000e+01 
55.258   8.00000000e+00 
55.078   1.20000000e+01 
54.898   1.10000000e+01 
54.719   1.50000000e+01 
54.539   1.00000000e+01 
54.359   1.10000000e+01 
54.180   9.00000000e+00 
54.000   1.50000000e+01 
53.820   1.20000000e+01 
53.641   1.30000000e+01 
53.461   7.00000000e+00 
53.281   1.60000000e+01 
53.102   1.20000000e+01 
52.922   1.70000000e+01 
52.742   1.70000000e+01 
52.562   1.10000000e+01 
52.383   1.10000000e+01 
52.203   9.00000000e+00 
52.023   6.00000000e+00 
51.844   7.00000000e+00 
51.664   8.00000000e+00 
51.484   4.00000000e+00 
51.305   5.00000000e+00 
51.125   5.00000000e+00 
50.945   9.00000000e+00 
50.766   4.00000000e+00 
50.586   5.00000000e+00 
50.406   5.00000000e+00 
50.227   7.00000000e+00 
50.047   0.00000000e+00 
49.867   7.00000000e+00 
49.687   2.00000000e+00 
49.508   9.00000000e+00 
49.328   3.00000000e+00 
49.148   4.00000000e+00 
48.969   6.00000000e+00 
48.789   1.00000000e+01 
48.609   8.00000000e+00 
48.430   1.00000000e+01 
48.250   6.00000000e+00 
48.070   6.00000000e+00 
47.891   1.00000000e+01 
47.711   4.00000000e+00 
47.531   3.00000000e+00 
47.352   6.00000000e+00 
47.172   6.00000000e+00 
46.992   5.00000000e+00 
46.812   7.00000000e+00 
46.633   5.00000000e+00 
46.453   5.00000000e+00 
46.273   7.00000000e+00 
46.094   7.00000000e+00 
45.914   4.00000000e+00 
45.734   3.00000000e+00 
45.555   6.00000000e+00 
45.375   7.00000000e+00 
45.195   3.00000000e+00 
45.016   5.00000000e+00 
44.836   6.00000000e+00 
44.656   5.00000000e+00 
44.477   8.00000000e+00 
44.297   6.00000000e+00 
44.117   5.00000000e+00 
43.937   3.00000000e+00 
43.758   8.00000000e+00 
43.578   3.00000000e+00 
43.398   3.00000000e+00 
43.219   8.00000000e+00 
43.039   5.00000000e+00 
42.859   6.00000000e+00 
42.680   5.00000000e+00 
42.500   3.00000000e+00 
42.320   7.00000000e+00 
42.141   4.00000000e+00 
41.961   9.00000000e+00 
41.781   6.00000000e+00 
41.602   8.00000000e+00 
41.422   3.00000000e+00 
41.242   7.00000000e+00 
41.062   3.00000000e+00 
40.883   2.00000000e+00 
40.703   6.00000000e+00 
40.523   4.00000000e+00 
40.344   1.00000000e+00 
40.164   4.00000000e+00 
39.984   8.00000000e+00 
39.805   8.00000000e+00 
39.625   2.00000000e+00 
39.445   3.00000000e+00 
39.266   4.00000000e+00 
39.086   4.00000000e+00 
38.906   5.00000000e+00 
38.727   7.00000000e+00 
38.547   5.00000000e+00 
38.367   5.00000000e+00 
38.187   6.00000000e+00 
38.008   6.00000000e+00 
37.828   5.00000000e+00 
37.648   6.00000000e+00 
37.469   4.00000000e+00 
37.289   1.00000000e+01 
37.109   1.00000000e+01 
36.930   1.10000000e+01 
36.750   2.00000000e+00 
36.570   1.00000000e+00 
36.391   4.00000000e+00 
36.211   5.00000000e+00 
36.031   7.00000000e+00 
35.852   8.00000000e+00 
35.672   6.00000000e+00 
35.492   9.00000000e+00 
35.312   6.00000000e+00 
35.133   1.20000000e+01 
34.953   1.80000000e+01 
34.773   9.00000000e+00 
34.594   1.50000000e+01 
34.414   1.30000000e+01 
34.234   9.00000000e+00 
34.055   1.40000000e+01 
33.875   7.00000000e+00 
33.695   7.00000000e+00 
33.516   5.00000000e+00 
33.336   4.00000000e+00 
33.156   1.30000000e+01 
32.977   1.10000000e+01 
32.797   7.00000000e+00 
32.617   9.00000000e+00 
32.437   8.00000000e+00 
32.258   8.00000000e+00 
32.078   5.00000000e+00 
31.898   5.00000000e+00 
31.719   7.00000000e+00 
31.539   6.00000000e+00 
31.359   8.00000000e+00 
31.180   1.00000000e+01 
31.000   9.00000000e+00 
30.820   8.00000000e+00 
30.641   6.00000000e+00 
30.461   1.00000000e+01 
30.281   1.20000000e+01 
30.102   1.40000000e+01 
29.922   1.10000000e+01 
29.742   1.50000000e+01 
29.562   9.00000000e+00 
29.383   6.00000000e+00 
29.203   9.00000000e+00 
29.023   1.00000000e+01 
28.844   6.00000000e+00 
28.664   1.10000000e+01 
28.484   8.00000000e+00 
28.305   6.00000000e+00 
28.125   4.00000000e+00 
27.945   4.00000000e+00 
27.766   6.00000000e+00 
27.586   9.00000000e+00 
27.406   9.00000000e+00 
27.227   1.00000000e+01 
27.047   1.00000000e+01 
26.867   5.00000000e+00 
26.687   4.00000000e+00 
26.508   6.00000000e+00 
26.328   5.00000000e+00 
26.148   7.00000000e+00 
25.969   5.00000000e+00 
25.789   7.00000000e+00 
25.609   7.00000000e+00 
25.430   1.10000000e+01 
25.250   5.00000000e+00 
25.070   5.00000000e+00 
24.891   6.00000000e+00 
24.711   4.00000000e+00 
24.531   4.00000000e+00 
24.352   6.00000000e+00 
24.172   5.00000000e+00 
23.992   5.00000000e+00 
23.812   8.00000000e+00 
23.633   6.00000000e+00 
23.453   7.00000000e+00 
23.273   4.00000000e+00 
23.094   6.00000000e+00 
22.914   5.00000000e+00 
22.734   2.00000000e+00 
22.555   4.00000000e+00 
22.375   3.00000000e+00 
22.195   3.00000000e+00 
22.016   3.00000000e+00 
21.836   2.00000000e+00 
21.656   2.00000000e+00 
21.477   3.00000000e+00 
21.297   8.00000000e+00 
21.117   5.00000000e+00 
20.937   3.00000000e+00 
20.758   1.00000000e+00 
20.578   6.00000000e+00 
20.398   4.00000000e+00 
20.219   4.00000000e+00 
20.039   3.00000000e+00 
19.859   1.00000000e+00 
19.680   1.00000000e+00 
19.500   5.00000000e+00 
19.320   2.00000000e+00 
19.141   6.00000000e+00 
18.961   1.10000000e+01 
18.781   4.00000000e+00 
18.602   3.00000000e+00 
18.422   4.00000000e+00 
18.242   2.00000000e+00 
18.062   3.00000000e+00 
17.883   4.00000000e+00 
17.703   2.00000000e+00 
17.523   7.00000000e+00 
17.344   4.00000000e+00 
17.164   2.00000000e+00 
16.984   4.00000000e+00 
16.805   6.00000000e+00 
16.625   6.00000000e+00 
16.445   0.00000000e+00 
16.266   5.00000000e+00 
16.086   4.00000000e+00 
15.906   5.00000000e+00 
15.727   3.00000000e+00 
15.547   6.00000000e+00 
15.367   5.00000000e+00 
15.187   5.00000000e+00 
15.008   3.00000000e+00 
14.828   5.00000000e+00 
14.648   2.00000000e+00 
14.469   2.00000000e+00 
14.289   3.00000000e+00 
14.109   4.00000000e+00 
13.930   9.00000000e+00 
13.750   5.00000000e+00 
13.570   2.00000000e+00 
13.391   4.00000000e+00 
13.211   1.00000000e+00 
13.031   3.00000000e+00 
12.852   5.00000000e+00 
12.672   0.00000000e+00 
12.492   4.00000000e+00 
12.312   5.00000000e+00 
12.133   2.00000000e+00 
11.953   1.00000000e+00 
11.773   4.00000000e+00 
11.594   6.00000000e+00 
11.414   3.00000000e+00 
11.234   1.00000000e+00 
11.055   0.00000000e+00 
10.875   4.00000000e+00 
10.695   2.00000000e+00 
10.516   4.00000000e+00 
10.336   3.00000000e+00 
10.156   3.00000000e+00 
9.977    2.00000000e+00 
9.797    3.00000000e+00 
9.617    6.00000000e+00 
9.437    2.00000000e+00 
9.258    5.00000000e+00 
9.078    5.00000000e+00 
8.898    4.00000000e+00 
8.719    3.00000000e+00 
8.539    1.00000000e+00 
8.359    3.00000000e+00 
8.180    4.00000000e+00 
8.000    2.00000000e+00 
7.820    2.00000000e+00 
7.641    3.00000000e+00 
7.461    0.00000000e+00 
7.281    3.00000000e+00 
7.102    0.00000000e+00 
6.922    1.00000000e+00 
6.742    1.00000000e+00 
6.562    2.00000000e+00 
6.383    1.00000000e+00 
6.203    2.00000000e+00 
6.023    1.00000000e+00 
5.844    0.00000000e+00 
5.664    4.00000000e+00 
5.484    0.00000000e+00 
5.305    1.00000000e+00 
5.125    0.00000000e+00 
4.945    0.00000000e+00 
4.766    0.00000000e+00 
4.586    0.00000000e+00 
4.406    0.00000000e+00 
4.227    0.00000000e+00 
4.047    0.00000000e+00 
3.867    1.00000000e+00 
3.687    0.00000000e+00 
3.508    0.00000000e+00 
3.328    0.00000000e+00 
3.148    0.00000000e+00 
2.969    0.00000000e+00 
2.789    1.00000000e+00 
2.609    0.00000000e+00 
2.430    1.00000000e+00 
2.250    0.00000000e+00 
2.070    1.00000000e+00 
1.891    0.00000000e+00 
1.711    1.00000000e+00 
1.531    0.00000000e+00 
1.352    2.00000000e+00 
1.172    1.00000000e+00 
0.992    1.00000000e+00 
0.812    1.00000000e+00 
0.633    1.00000000e+00 
0.453    1.00000000e+00 
0.273    2.00000000e+00 
0.094    0.00000000e+00 

