EXPERIMENT FILE
Version = 2

[ Experiment Parameters ]
Experiment Description= <none> 
Number_of_Regions_in_Experiment= 1 

Original_File_name= c:\alexesca\data\detector\sample1.xps 
Instrument= HP ESCA West
Date= 01-22-2006
Time=  17:26:09

[ Layer Parameters ]
Layer_Type= XPS

[ Region 1 Parameters ]
Region_Description = Nsurvey                            
BEcenter(eV) = 600.000000
BEwidth(eV) = 1200.000000
BEstep(eV) = 0.539063
Dwell_Time(sec) = 0.250000
N_o_scans = 4  
N_o_Channels = 2217  
Scan_mode = 0  (DITHERED)

[ L= 1 R= 1 ]
BEcenter= 600.000 
BEwidth= -1199.414
Excitation= 1486.600
Time_p_channel= 17.067  
Size= 2226
1199.707 1.47000000e+02 
1199.168 1.50000000e+02 
1198.629 1.34000000e+02 
1198.090 1.36000000e+02 
1197.551 1.53000000e+02 
1197.012 1.43000000e+02 
1196.473 1.46000000e+02 
1195.934 1.43000000e+02 
1195.395 1.33000000e+02 
1194.855 1.56000000e+02 
1194.316 1.40000000e+02 
1193.777 1.54000000e+02 
1193.238 1.54000000e+02 
1192.699 1.21000000e+02 
1192.160 1.34000000e+02 
1191.621 1.20000000e+02 
1191.082 1.38000000e+02 
1190.543 1.27000000e+02 
1190.004 1.07000000e+02 
1189.465 1.59000000e+02 
1188.926 1.23000000e+02 
1188.387 1.37000000e+02 
1187.848 1.32000000e+02 
1187.309 1.10000000e+02 
1186.770 1.46000000e+02 
1186.230 1.24000000e+02 
1185.691 1.23000000e+02 
1185.152 1.09000000e+02 
1184.613 1.08000000e+02 
1184.074 1.10000000e+02 
1183.535 1.13000000e+02 
1182.996 1.20000000e+02 
1182.457 1.06000000e+02 
1181.918 1.05000000e+02 
1181.379 1.35000000e+02 
1180.840 1.26000000e+02 
1180.301 1.12000000e+02 
1179.762 1.06000000e+02 
1179.223 1.30000000e+02 
1178.684 1.33000000e+02 
1178.145 1.35000000e+02 
1177.605 1.11000000e+02 
1177.066 1.04000000e+02 
1176.527 1.08000000e+02 
1175.988 1.06000000e+02 
1175.449 9.60000000e+01 
1174.910 1.08000000e+02 
1174.371 1.06000000e+02 
1173.832 1.09000000e+02 
1173.293 1.17000000e+02 
1172.754 1.00000000e+02 
1172.215 9.90000000e+01 
1171.676 1.11000000e+02 
1171.137 1.12000000e+02 
1170.598 1.06000000e+02 
1170.059 1.15000000e+02 
1169.520 1.07000000e+02 
1168.980 8.50000000e+01 
1168.441 1.14000000e+02 
1167.902 8.20000000e+01 
1167.363 9.80000000e+01 
1166.824 9.30000000e+01 
1166.285 1.04000000e+02 
1165.746 1.10000000e+02 
1165.207 9.80000000e+01 
1164.668 9.80000000e+01 
1164.129 9.60000000e+01 
1163.590 1.02000000e+02 
1163.051 9.40000000e+01 
1162.512 1.00000000e+02 
1161.973 9.20000000e+01 
1161.434 8.60000000e+01 
1160.895 9.20000000e+01 
1160.355 9.90000000e+01 
1159.816 1.09000000e+02 
1159.277 1.12000000e+02 
1158.738 1.08000000e+02 
1158.199 1.04000000e+02 
1157.660 8.50000000e+01 
1157.121 9.90000000e+01 
1156.582 8.90000000e+01 
1156.043 9.40000000e+01 
1155.504 7.40000000e+01 
1154.965 9.90000000e+01 
1154.426 8.50000000e+01 
1153.887 1.07000000e+02 
1153.348 8.90000000e+01 
1152.809 8.10000000e+01 
1152.270 8.70000000e+01 
1151.730 8.20000000e+01 
1151.191 7.90000000e+01 
1150.652 8.00000000e+01 
1150.113 7.10000000e+01 
1149.574 1.16000000e+02 
1149.035 9.00000000e+01 
1148.496 7.60000000e+01 
1147.957 8.40000000e+01 
1147.418 8.60000000e+01 
1146.879 9.70000000e+01 
1146.340 8.80000000e+01 
1145.801 9.00000000e+01 
1145.262 9.50000000e+01 
1144.723 8.00000000e+01 
1144.184 9.10000000e+01 
1143.645 7.70000000e+01 
1143.105 8.40000000e+01 
1142.566 8.00000000e+01 
1142.027 9.40000000e+01 
1141.488 8.20000000e+01 
1140.949 7.70000000e+01 
1140.410 7.40000000e+01 
1139.871 9.50000000e+01 
1139.332 9.00000000e+01 
1138.793 7.00000000e+01 
1138.254 8.00000000e+01 
1137.715 7.80000000e+01 
1137.176 9.10000000e+01 
1136.637 7.40000000e+01 
1136.098 7.50000000e+01 
1135.559 8.60000000e+01 
1135.020 9.10000000e+01 
1134.480 8.10000000e+01 
1133.941 8.40000000e+01 
1133.402 5.90000000e+01 
1132.863 6.50000000e+01 
1132.324 8.90000000e+01 
1131.785 6.20000000e+01 
1131.246 8.40000000e+01 
1130.707 8.20000000e+01 
1130.168 7.60000000e+01 
1129.629 7.60000000e+01 
1129.090 8.00000000e+01 
1128.551 7.80000000e+01 
1128.012 6.50000000e+01 
1127.473 6.80000000e+01 
1126.934 8.00000000e+01 
1126.395 6.90000000e+01 
1125.855 7.10000000e+01 
1125.316 7.60000000e+01 
1124.777 6.20000000e+01 
1124.238 7.50000000e+01 
1123.699 7.70000000e+01 
1123.160 7.20000000e+01 
1122.621 9.00000000e+01 
1122.082 8.60000000e+01 
1121.543 7.80000000e+01 
1121.004 6.10000000e+01 
1120.465 7.50000000e+01 
1119.926 8.10000000e+01 
1119.387 7.70000000e+01 
1118.848 5.80000000e+01 
1118.309 8.60000000e+01 
1117.770 5.80000000e+01 
1117.230 6.00000000e+01 
1116.691 8.10000000e+01 
1116.152 7.30000000e+01 
1115.613 8.10000000e+01 
1115.074 7.60000000e+01 
1114.535 4.50000000e+01 
1113.996 5.50000000e+01 
1113.457 6.10000000e+01 
1112.918 7.00000000e+01 
1112.379 6.20000000e+01 
1111.840 6.50000000e+01 
1111.301 7.00000000e+01 
1110.762 6.70000000e+01 
1110.223 6.90000000e+01 
1109.684 6.40000000e+01 
1109.145 6.80000000e+01 
1108.605 6.40000000e+01 
1108.066 7.00000000e+01 
1107.527 5.30000000e+01 
1106.988 6.80000000e+01 
1106.449 7.10000000e+01 
1105.910 5.20000000e+01 
1105.371 7.60000000e+01 
1104.832 6.80000000e+01 
1104.293 6.40000000e+01 
1103.754 5.80000000e+01 
1103.215 7.10000000e+01 
1102.676 6.00000000e+01 
1102.137 7.30000000e+01 
1101.598 7.20000000e+01 
1101.059 6.50000000e+01 
1100.520 5.90000000e+01 
1099.980 7.10000000e+01 
1099.441 7.00000000e+01 
1098.902 7.10000000e+01 
1098.363 5.30000000e+01 
1097.824 6.10000000e+01 
1097.285 6.40000000e+01 
1096.746 5.70000000e+01 
1096.207 6.80000000e+01 
1095.668 7.30000000e+01 
1095.129 6.90000000e+01 
1094.590 7.40000000e+01 
1094.051 6.00000000e+01 
1093.512 7.90000000e+01 
1092.973 6.50000000e+01 
1092.434 5.30000000e+01 
1091.895 7.60000000e+01 
1091.355 6.00000000e+01 
1090.816 7.50000000e+01 
1090.277 5.40000000e+01 
1089.738 6.60000000e+01 
1089.199 7.20000000e+01 
1088.660 5.80000000e+01 
1088.121 6.70000000e+01 
1087.582 6.60000000e+01 
1087.043 5.90000000e+01 
1086.504 7.10000000e+01 
1085.965 6.30000000e+01 
1085.426 5.80000000e+01 
1084.887 7.20000000e+01 
1084.348 6.40000000e+01 
1083.809 6.20000000e+01 
1083.270 8.00000000e+01 
1082.730 5.90000000e+01 
1082.191 7.20000000e+01 
1081.652 8.40000000e+01 
1081.113 8.20000000e+01 
1080.574 7.20000000e+01 
1080.035 5.50000000e+01 
1079.496 6.20000000e+01 
1078.957 5.90000000e+01 
1078.418 6.70000000e+01 
1077.879 4.50000000e+01 
1077.340 6.40000000e+01 
1076.801 7.00000000e+01 
1076.262 6.90000000e+01 
1075.723 7.10000000e+01 
1075.184 7.60000000e+01 
1074.645 5.60000000e+01 
1074.105 6.00000000e+01 
1073.566 5.30000000e+01 
1073.027 6.30000000e+01 
1072.488 5.80000000e+01 
1071.949 6.70000000e+01 
1071.410 7.30000000e+01 
1070.871 6.10000000e+01 
1070.332 5.00000000e+01 
1069.793 5.20000000e+01 
1069.254 6.30000000e+01 
1068.715 6.70000000e+01 
1068.176 5.20000000e+01 
1067.637 6.70000000e+01 
1067.098 6.30000000e+01 
1066.559 5.90000000e+01 
1066.020 5.40000000e+01 
1065.480 6.30000000e+01 
1064.941 4.60000000e+01 
1064.402 6.40000000e+01 
1063.863 7.00000000e+01 
1063.324 5.80000000e+01 
1062.785 5.50000000e+01 
1062.246 6.20000000e+01 
1061.707 6.30000000e+01 
1061.168 6.80000000e+01 
1060.629 5.70000000e+01 
1060.090 7.10000000e+01 
1059.551 4.60000000e+01 
1059.012 5.10000000e+01 
1058.473 5.50000000e+01 
1057.934 6.30000000e+01 
1057.395 5.60000000e+01 
1056.855 4.90000000e+01 
1056.316 4.00000000e+01 
1055.777 6.20000000e+01 
1055.238 6.20000000e+01 
1054.699 7.30000000e+01 
1054.160 5.30000000e+01 
1053.621 6.00000000e+01 
1053.082 6.20000000e+01 
1052.543 6.80000000e+01 
1052.004 6.20000000e+01 
1051.465 6.40000000e+01 
1050.926 7.60000000e+01 
1050.387 6.80000000e+01 
1049.848 5.60000000e+01 
1049.309 6.70000000e+01 
1048.770 5.80000000e+01 
1048.230 5.30000000e+01 
1047.691 6.00000000e+01 
1047.152 6.00000000e+01 
1046.613 5.90000000e+01 
1046.074 6.40000000e+01 
1045.535 6.20000000e+01 
1044.996 6.40000000e+01 
1044.457 6.60000000e+01 
1043.918 5.30000000e+01 
1043.379 5.00000000e+01 
1042.840 6.20000000e+01 
1042.301 5.80000000e+01 
1041.762 5.90000000e+01 
1041.223 6.10000000e+01 
1040.684 6.10000000e+01 
1040.145 5.00000000e+01 
1039.605 6.30000000e+01 
1039.066 5.10000000e+01 
1038.527 6.00000000e+01 
1037.988 5.50000000e+01 
1037.449 5.70000000e+01 
1036.910 4.90000000e+01 
1036.371 5.80000000e+01 
1035.832 6.30000000e+01 
1035.293 6.00000000e+01 
1034.754 5.90000000e+01 
1034.215 5.80000000e+01 
1033.676 6.80000000e+01 
1033.137 5.70000000e+01 
1032.598 5.20000000e+01 
1032.059 5.70000000e+01 
1031.520 5.20000000e+01 
1030.980 6.50000000e+01 
1030.441 5.40000000e+01 
1029.902 6.50000000e+01 
1029.363 7.40000000e+01 
1028.824 5.50000000e+01 
1028.285 6.30000000e+01 
1027.746 5.60000000e+01 
1027.207 5.40000000e+01 
1026.668 5.60000000e+01 
1026.129 5.10000000e+01 
1025.590 5.30000000e+01 
1025.051 5.50000000e+01 
1024.512 6.80000000e+01 
1023.973 5.70000000e+01 
1023.434 5.50000000e+01 
1022.895 6.40000000e+01 
1022.355 4.80000000e+01 
1021.816 5.40000000e+01 
1021.277 8.10000000e+01 
1020.738 6.70000000e+01 
1020.199 7.00000000e+01 
1019.660 5.40000000e+01 
1019.121 5.90000000e+01 
1018.582 6.10000000e+01 
1018.043 6.20000000e+01 
1017.504 5.30000000e+01 
1016.965 6.40000000e+01 
1016.426 5.30000000e+01 
1015.887 6.50000000e+01 
1015.348 5.20000000e+01 
1014.809 6.90000000e+01 
1014.270 7.10000000e+01 
1013.730 6.90000000e+01 
1013.191 4.80000000e+01 
1012.652 5.90000000e+01 
1012.113 6.30000000e+01 
1011.574 5.50000000e+01 
1011.035 7.40000000e+01 
1010.496 7.40000000e+01 
1009.957 5.60000000e+01 
1009.418 6.40000000e+01 
1008.879 5.60000000e+01 
1008.340 5.70000000e+01 
1007.801 6.60000000e+01 
1007.262 6.20000000e+01 
1006.723 4.60000000e+01 
1006.184 5.10000000e+01 
1005.645 5.30000000e+01 
1005.105 6.20000000e+01 
1004.566 5.60000000e+01 
1004.027 7.80000000e+01 
1003.488 6.20000000e+01 
1002.949 6.00000000e+01 
1002.410 5.40000000e+01 
1001.871 5.80000000e+01 
1001.332 5.30000000e+01 
1000.793 5.10000000e+01 
1000.254 5.30000000e+01 
999.715  5.10000000e+01 
999.176  5.50000000e+01 
998.637  5.00000000e+01 
998.098  6.60000000e+01 
997.559  7.00000000e+01 
997.020  5.50000000e+01 
996.480  4.60000000e+01 
995.941  6.70000000e+01 
995.402  5.50000000e+01 
994.863  5.70000000e+01 
994.324  5.60000000e+01 
993.785  6.00000000e+01 
993.246  6.90000000e+01 
992.707  5.00000000e+01 
992.168  5.70000000e+01 
991.629  5.60000000e+01 
991.090  5.80000000e+01 
990.551  6.30000000e+01 
990.012  6.10000000e+01 
989.473  4.90000000e+01 
988.934  6.60000000e+01 
988.395  7.60000000e+01 
987.855  6.00000000e+01 
987.316  7.50000000e+01 
986.777  7.30000000e+01 
986.238  8.00000000e+01 
985.699  5.90000000e+01 
985.160  7.10000000e+01 
984.621  6.90000000e+01 
984.082  8.30000000e+01 
983.543  5.50000000e+01 
983.004  7.50000000e+01 
982.465  4.50000000e+01 
981.926  4.30000000e+01 
981.387  4.80000000e+01 
980.848  4.90000000e+01 
980.309  5.40000000e+01 
979.770  5.20000000e+01 
979.230  3.60000000e+01 
978.691  5.70000000e+01 
978.152  5.20000000e+01 
977.613  4.80000000e+01 
977.074  4.40000000e+01 
976.535  6.00000000e+01 
975.996  5.50000000e+01 
975.457  5.50000000e+01 
974.918  5.20000000e+01 
974.379  4.70000000e+01 
973.840  5.00000000e+01 
973.301  4.70000000e+01 
972.762  4.00000000e+01 
972.223  3.70000000e+01 
971.684  4.10000000e+01 
971.145  4.40000000e+01 
970.605  4.40000000e+01 
970.066  5.20000000e+01 
969.527  6.10000000e+01 
968.988  4.20000000e+01 
968.449  3.70000000e+01 
967.910  5.30000000e+01 
967.371  3.20000000e+01 
966.832  4.10000000e+01 
966.293  4.60000000e+01 
965.754  5.20000000e+01 
965.215  3.70000000e+01 
964.676  5.00000000e+01 
964.137  4.10000000e+01 
963.598  5.90000000e+01 
963.059  4.10000000e+01 
962.520  6.20000000e+01 
961.980  5.60000000e+01 
961.441  3.10000000e+01 
960.902  4.50000000e+01 
960.363  4.90000000e+01 
959.824  4.80000000e+01 
959.285  5.10000000e+01 
958.746  5.70000000e+01 
958.207  4.70000000e+01 
957.668  6.00000000e+01 
957.129  3.70000000e+01 
956.590  4.50000000e+01 
956.051  5.80000000e+01 
955.512  3.30000000e+01 
954.973  5.10000000e+01 
954.434  4.00000000e+01 
953.895  4.00000000e+01 
953.355  5.70000000e+01 
952.816  4.90000000e+01 
952.277  5.10000000e+01 
951.738  5.60000000e+01 
951.199  4.40000000e+01 
950.660  4.80000000e+01 
950.121  4.70000000e+01 
949.582  4.60000000e+01 
949.043  5.10000000e+01 
948.504  4.10000000e+01 
947.965  6.20000000e+01 
947.426  6.10000000e+01 
946.887  4.70000000e+01 
946.348  4.00000000e+01 
945.809  4.80000000e+01 
945.270  6.10000000e+01 
944.730  4.50000000e+01 
944.191  5.20000000e+01 
943.652  4.40000000e+01 
943.113  5.20000000e+01 
942.574  4.80000000e+01 
942.035  4.20000000e+01 
941.496  4.40000000e+01 
940.957  4.50000000e+01 
940.418  4.20000000e+01 
939.879  3.90000000e+01 
939.340  4.60000000e+01 
938.801  4.20000000e+01 
938.262  5.70000000e+01 
937.723  4.60000000e+01 
937.184  4.50000000e+01 
936.645  4.70000000e+01 
936.105  3.40000000e+01 
935.566  4.30000000e+01 
935.027  4.20000000e+01 
934.488  4.90000000e+01 
933.949  3.80000000e+01 
933.410  5.50000000e+01 
932.871  3.00000000e+01 
932.332  4.20000000e+01 
931.793  3.90000000e+01 
931.254  3.60000000e+01 
930.715  5.50000000e+01 
930.176  4.60000000e+01 
929.637  3.80000000e+01 
929.098  5.10000000e+01 
928.559  4.30000000e+01 
928.020  6.20000000e+01 
927.480  6.60000000e+01 
926.941  4.40000000e+01 
926.402  5.40000000e+01 
925.863  5.70000000e+01 
925.324  4.50000000e+01 
924.785  6.00000000e+01 
924.246  4.30000000e+01 
923.707  4.10000000e+01 
923.168  4.10000000e+01 
922.629  5.30000000e+01 
922.090  3.50000000e+01 
921.551  4.20000000e+01 
921.012  4.50000000e+01 
920.473  4.70000000e+01 
919.934  5.60000000e+01 
919.395  6.20000000e+01 
918.855  5.80000000e+01 
918.316  5.60000000e+01 
917.777  4.90000000e+01 
917.238  4.20000000e+01 
916.699  4.00000000e+01 
916.160  4.20000000e+01 
915.621  3.90000000e+01 
915.082  5.00000000e+01 
914.543  4.40000000e+01 
914.004  3.90000000e+01 
913.465  5.10000000e+01 
912.926  4.50000000e+01 
912.387  4.70000000e+01 
911.848  4.70000000e+01 
911.309  5.40000000e+01 
910.770  5.30000000e+01 
910.230  5.00000000e+01 
909.691  4.50000000e+01 
909.152  4.10000000e+01 
908.613  5.10000000e+01 
908.074  4.90000000e+01 
907.535  6.20000000e+01 
906.996  4.40000000e+01 
906.457  4.20000000e+01 
905.918  3.60000000e+01 
905.379  4.40000000e+01 
904.840  4.30000000e+01 
904.301  5.20000000e+01 
903.762  6.30000000e+01 
903.223  4.90000000e+01 
902.684  5.00000000e+01 
902.145  5.70000000e+01 
901.605  6.20000000e+01 
901.066  6.60000000e+01 
900.527  6.20000000e+01 
899.988  4.10000000e+01 
899.449  5.60000000e+01 
898.910  4.50000000e+01 
898.371  4.30000000e+01 
897.832  5.00000000e+01 
897.293  6.00000000e+01 
896.754  5.40000000e+01 
896.215  5.50000000e+01 
895.676  5.10000000e+01 
895.137  5.70000000e+01 
894.598  5.10000000e+01 
894.059  5.00000000e+01 
893.520  5.20000000e+01 
892.980  5.10000000e+01 
892.441  4.90000000e+01 
891.902  5.10000000e+01 
891.363  5.70000000e+01 
890.824  5.50000000e+01 
890.285  5.40000000e+01 
889.746  4.50000000e+01 
889.207  5.80000000e+01 
888.668  5.00000000e+01 
888.129  4.40000000e+01 
887.590  5.10000000e+01 
887.051  3.80000000e+01 
886.512  5.70000000e+01 
885.973  4.20000000e+01 
885.434  5.70000000e+01 
884.895  5.10000000e+01 
884.355  5.80000000e+01 
883.816  5.50000000e+01 
883.277  5.10000000e+01 
882.738  4.40000000e+01 
882.199  4.40000000e+01 
881.660  5.00000000e+01 
881.121  5.10000000e+01 
880.582  5.40000000e+01 
880.043  5.00000000e+01 
879.504  4.20000000e+01 
878.965  5.60000000e+01 
878.426  4.60000000e+01 
877.887  5.40000000e+01 
877.348  4.60000000e+01 
876.809  5.10000000e+01 
876.270  5.30000000e+01 
875.730  4.90000000e+01 
875.191  3.60000000e+01 
874.652  6.40000000e+01 
874.113  5.90000000e+01 
873.574  5.70000000e+01 
873.035  5.50000000e+01 
872.496  7.20000000e+01 
871.957  5.50000000e+01 
871.418  5.80000000e+01 
870.879  4.90000000e+01 
870.340  5.60000000e+01 
869.801  4.30000000e+01 
869.262  4.80000000e+01 
868.723  5.00000000e+01 
868.184  5.90000000e+01 
867.645  5.00000000e+01 
867.105  6.10000000e+01 
866.566  5.40000000e+01 
866.027  6.00000000e+01 
865.488  4.80000000e+01 
864.949  5.30000000e+01 
864.410  4.70000000e+01 
863.871  5.00000000e+01 
863.332  5.00000000e+01 
862.793  5.00000000e+01 
862.254  4.40000000e+01 
861.715  4.10000000e+01 
861.176  5.10000000e+01 
860.637  4.30000000e+01 
860.098  4.60000000e+01 
859.559  5.40000000e+01 
859.020  4.20000000e+01 
858.480  4.70000000e+01 
857.941  2.80000000e+01 
857.402  4.50000000e+01 
856.863  3.90000000e+01 
856.324  3.50000000e+01 
855.785  4.00000000e+01 
855.246  4.60000000e+01 
854.707  4.40000000e+01 
854.168  3.80000000e+01 
853.629  6.10000000e+01 
853.090  4.50000000e+01 
852.551  4.70000000e+01 
852.012  3.90000000e+01 
851.473  4.20000000e+01 
850.934  4.90000000e+01 
850.395  4.60000000e+01 
849.855  5.30000000e+01 
849.316  4.30000000e+01 
848.777  4.20000000e+01 
848.238  4.80000000e+01 
847.699  3.80000000e+01 
847.160  3.70000000e+01 
846.621  4.60000000e+01 
846.082  4.20000000e+01 
845.543  5.10000000e+01 
845.004  3.30000000e+01 
844.465  4.30000000e+01 
843.926  4.40000000e+01 
843.387  3.20000000e+01 
842.848  4.90000000e+01 
842.309  3.30000000e+01 
841.770  4.20000000e+01 
841.230  4.40000000e+01 
840.691  4.60000000e+01 
840.152  5.10000000e+01 
839.613  3.60000000e+01 
839.074  6.30000000e+01 
838.535  4.50000000e+01 
837.996  5.30000000e+01 
837.457  4.60000000e+01 
836.918  4.60000000e+01 
836.379  4.50000000e+01 
835.840  3.00000000e+01 
835.301  4.40000000e+01 
834.762  4.80000000e+01 
834.223  4.40000000e+01 
833.684  3.10000000e+01 
833.145  4.40000000e+01 
832.605  3.00000000e+01 
832.066  4.90000000e+01 
831.527  4.00000000e+01 
830.988  4.80000000e+01 
830.449  5.20000000e+01 
829.910  4.30000000e+01 
829.371  4.00000000e+01 
828.832  3.90000000e+01 
828.293  4.10000000e+01 
827.754  3.70000000e+01 
827.215  4.90000000e+01 
826.676  3.50000000e+01 
826.137  5.40000000e+01 
825.598  3.90000000e+01 
825.059  3.70000000e+01 
824.520  5.10000000e+01 
823.980  5.40000000e+01 
823.441  4.00000000e+01 
822.902  3.80000000e+01 
822.363  4.10000000e+01 
821.824  4.40000000e+01 
821.285  4.10000000e+01 
820.746  3.60000000e+01 
820.207  5.10000000e+01 
819.668  5.20000000e+01 
819.129  4.20000000e+01 
818.590  3.60000000e+01 
818.051  3.40000000e+01 
817.512  4.90000000e+01 
816.973  3.50000000e+01 
816.434  5.50000000e+01 
815.895  4.80000000e+01 
815.355  4.90000000e+01 
814.816  3.60000000e+01 
814.277  4.70000000e+01 
813.738  4.20000000e+01 
813.199  4.10000000e+01 
812.660  3.90000000e+01 
812.121  4.10000000e+01 
811.582  4.20000000e+01 
811.043  3.90000000e+01 
810.504  4.20000000e+01 
809.965  4.20000000e+01 
809.426  4.80000000e+01 
808.887  4.30000000e+01 
808.348  6.10000000e+01 
807.809  3.80000000e+01 
807.270  4.30000000e+01 
806.730  5.50000000e+01 
806.191  4.20000000e+01 
805.652  6.10000000e+01 
805.113  5.90000000e+01 
804.574  5.10000000e+01 
804.035  4.50000000e+01 
803.496  4.50000000e+01 
802.957  3.70000000e+01 
802.418  6.00000000e+01 
801.879  4.20000000e+01 
801.340  4.90000000e+01 
800.801  4.00000000e+01 
800.262  2.90000000e+01 
799.723  3.70000000e+01 
799.184  4.60000000e+01 
798.645  5.30000000e+01 
798.105  3.60000000e+01 
797.566  5.40000000e+01 
797.027  3.90000000e+01 
796.488  3.70000000e+01 
795.949  4.50000000e+01 
795.410  4.90000000e+01 
794.871  5.40000000e+01 
794.332  3.80000000e+01 
793.793  4.00000000e+01 
793.254  3.60000000e+01 
792.715  3.90000000e+01 
792.176  3.80000000e+01 
791.637  5.70000000e+01 
791.098  3.70000000e+01 
790.559  4.70000000e+01 
790.020  4.60000000e+01 
789.480  5.50000000e+01 
788.941  3.80000000e+01 
788.402  4.30000000e+01 
787.863  4.50000000e+01 
787.324  4.50000000e+01 
786.785  4.80000000e+01 
786.246  5.00000000e+01 
785.707  3.80000000e+01 
785.168  5.70000000e+01 
784.629  3.80000000e+01 
784.090  3.60000000e+01 
783.551  4.20000000e+01 
783.012  5.00000000e+01 
782.473  4.90000000e+01 
781.934  4.30000000e+01 
781.395  4.60000000e+01 
780.855  4.70000000e+01 
780.316  4.40000000e+01 
779.777  4.10000000e+01 
779.238  5.10000000e+01 
778.699  5.00000000e+01 
778.160  4.60000000e+01 
777.621  4.00000000e+01 
777.082  4.30000000e+01 
776.543  3.90000000e+01 
776.004  4.30000000e+01 
775.465  6.80000000e+01 
774.926  4.40000000e+01 
774.387  4.60000000e+01 
773.848  5.90000000e+01 
773.309  5.40000000e+01 
772.770  4.90000000e+01 
772.230  4.00000000e+01 
771.691  5.00000000e+01 
771.152  3.70000000e+01 
770.613  3.90000000e+01 
770.074  5.40000000e+01 
769.535  4.20000000e+01 
768.996  3.80000000e+01 
768.457  3.80000000e+01 
767.918  3.30000000e+01 
767.379  4.20000000e+01 
766.840  4.30000000e+01 
766.301  4.70000000e+01 
765.762  4.50000000e+01 
765.223  3.10000000e+01 
764.684  3.20000000e+01 
764.145  3.60000000e+01 
763.605  3.30000000e+01 
763.066  3.90000000e+01 
762.527  4.30000000e+01 
761.988  3.80000000e+01 
761.449  4.30000000e+01 
760.910  3.00000000e+01 
760.371  3.90000000e+01 
759.832  4.20000000e+01 
759.293  4.30000000e+01 
758.754  3.90000000e+01 
758.215  5.00000000e+01 
757.676  4.00000000e+01 
757.137  3.70000000e+01 
756.598  4.00000000e+01 
756.059  3.70000000e+01 
755.520  3.60000000e+01 
754.980  4.20000000e+01 
754.441  3.40000000e+01 
753.902  5.20000000e+01 
753.363  3.90000000e+01 
752.824  4.00000000e+01 
752.285  4.90000000e+01 
751.746  4.00000000e+01 
751.207  4.40000000e+01 
750.668  5.70000000e+01 
750.129  4.20000000e+01 
749.590  3.90000000e+01 
749.051  3.70000000e+01 
748.512  4.20000000e+01 
747.973  5.40000000e+01 
747.434  5.60000000e+01 
746.895  3.40000000e+01 
746.355  3.90000000e+01 
745.816  4.70000000e+01 
745.277  3.20000000e+01 
744.738  3.50000000e+01 
744.199  4.50000000e+01 
743.660  5.60000000e+01 
743.121  4.00000000e+01 
742.582  5.10000000e+01 
742.043  4.20000000e+01 
741.504  5.20000000e+01 
740.965  4.40000000e+01 
740.426  3.60000000e+01 
739.887  4.20000000e+01 
739.348  4.30000000e+01 
738.809  4.70000000e+01 
738.270  3.50000000e+01 
737.730  4.80000000e+01 
737.191  4.20000000e+01 
736.652  5.00000000e+01 
736.113  4.60000000e+01 
735.574  5.30000000e+01 
735.035  3.10000000e+01 
734.496  3.40000000e+01 
733.957  5.90000000e+01 
733.418  4.10000000e+01 
732.879  4.30000000e+01 
732.340  4.10000000e+01 
731.801  4.30000000e+01 
731.262  5.40000000e+01 
730.723  4.90000000e+01 
730.184  2.80000000e+01 
729.645  2.70000000e+01 
729.105  4.50000000e+01 
728.566  3.30000000e+01 
728.027  4.10000000e+01 
727.488  3.70000000e+01 
726.949  3.60000000e+01 
726.410  3.00000000e+01 
725.871  5.00000000e+01 
725.332  4.10000000e+01 
724.793  4.80000000e+01 
724.254  5.20000000e+01 
723.715  4.90000000e+01 
723.176  4.60000000e+01 
722.637  3.60000000e+01 
722.098  3.90000000e+01 
721.559  3.90000000e+01 
721.020  3.60000000e+01 
720.480  4.60000000e+01 
719.941  5.20000000e+01 
719.402  4.30000000e+01 
718.863  4.20000000e+01 
718.324  4.30000000e+01 
717.785  3.10000000e+01 
717.246  4.40000000e+01 
716.707  3.50000000e+01 
716.168  4.30000000e+01 
715.629  3.20000000e+01 
715.090  5.00000000e+01 
714.551  4.30000000e+01 
714.012  4.90000000e+01 
713.473  4.40000000e+01 
712.934  3.40000000e+01 
712.395  5.20000000e+01 
711.855  4.50000000e+01 
711.316  5.10000000e+01 
710.777  4.10000000e+01 
710.238  4.40000000e+01 
709.699  4.00000000e+01 
709.160  4.70000000e+01 
708.621  4.10000000e+01 
708.082  4.20000000e+01 
707.543  4.00000000e+01 
707.004  3.30000000e+01 
706.465  4.30000000e+01 
705.926  3.60000000e+01 
705.387  5.00000000e+01 
704.848  3.70000000e+01 
704.309  4.30000000e+01 
703.770  4.40000000e+01 
703.230  2.90000000e+01 
702.691  4.10000000e+01 
702.152  4.00000000e+01 
701.613  3.60000000e+01 
701.074  4.30000000e+01 
700.535  4.00000000e+01 
699.996  5.10000000e+01 
699.457  4.00000000e+01 
698.918  3.80000000e+01 
698.379  3.70000000e+01 
697.840  3.90000000e+01 
697.301  5.00000000e+01 
696.762  3.90000000e+01 
696.223  3.80000000e+01 
695.684  4.40000000e+01 
695.145  2.80000000e+01 
694.605  2.60000000e+01 
694.066  3.50000000e+01 
693.527  4.00000000e+01 
692.988  4.90000000e+01 
692.449  3.20000000e+01 
691.910  5.10000000e+01 
691.371  4.10000000e+01 
690.832  4.80000000e+01 
690.293  4.50000000e+01 
689.754  4.50000000e+01 
689.215  3.70000000e+01 
688.676  4.30000000e+01 
688.137  3.10000000e+01 
687.598  3.50000000e+01 
687.059  3.40000000e+01 
686.520  4.30000000e+01 
685.980  4.20000000e+01 
685.441  3.70000000e+01 
684.902  4.40000000e+01 
684.363  2.80000000e+01 
683.824  2.70000000e+01 
683.285  5.10000000e+01 
682.746  4.60000000e+01 
682.207  3.80000000e+01 
681.668  4.40000000e+01 
681.129  3.60000000e+01 
680.590  3.70000000e+01 
680.051  3.10000000e+01 
679.512  2.90000000e+01 
678.973  4.40000000e+01 
678.434  3.20000000e+01 
677.895  4.50000000e+01 
677.355  4.40000000e+01 
676.816  3.70000000e+01 
676.277  3.70000000e+01 
675.738  3.60000000e+01 
675.199  3.70000000e+01 
674.660  2.50000000e+01 
674.121  3.40000000e+01 
673.582  4.50000000e+01 
673.043  2.60000000e+01 
672.504  4.10000000e+01 
671.965  3.90000000e+01 
671.426  3.00000000e+01 
670.887  4.30000000e+01 
670.348  3.50000000e+01 
669.809  4.60000000e+01 
669.270  4.80000000e+01 
668.730  3.90000000e+01 
668.191  4.00000000e+01 
667.652  3.50000000e+01 
667.113  4.10000000e+01 
666.574  4.40000000e+01 
666.035  4.20000000e+01 
665.496  4.00000000e+01 
664.957  5.00000000e+01 
664.418  4.10000000e+01 
663.879  3.00000000e+01 
663.340  4.50000000e+01 
662.801  5.00000000e+01 
662.262  4.60000000e+01 
661.723  3.70000000e+01 
661.184  5.60000000e+01 
660.645  4.10000000e+01 
660.105  4.30000000e+01 
659.566  3.40000000e+01 
659.027  4.60000000e+01 
658.488  3.90000000e+01 
657.949  3.60000000e+01 
657.410  2.90000000e+01 
656.871  5.10000000e+01 
656.332  3.30000000e+01 
655.793  3.80000000e+01 
655.254  4.00000000e+01 
654.715  4.30000000e+01 
654.176  3.70000000e+01 
653.637  5.70000000e+01 
653.098  3.30000000e+01 
652.559  4.50000000e+01 
652.020  4.30000000e+01 
651.480  3.30000000e+01 
650.941  4.40000000e+01 
650.402  3.80000000e+01 
649.863  4.70000000e+01 
649.324  3.10000000e+01 
648.785  4.40000000e+01 
648.246  5.00000000e+01 
647.707  4.50000000e+01 
647.168  3.90000000e+01 
646.629  3.20000000e+01 
646.090  4.30000000e+01 
645.551  3.70000000e+01 
645.012  3.10000000e+01 
644.473  3.30000000e+01 
643.934  4.20000000e+01 
643.395  2.90000000e+01 
642.855  3.20000000e+01 
642.316  4.00000000e+01 
641.777  3.40000000e+01 
641.238  3.60000000e+01 
640.699  3.50000000e+01 
640.160  3.90000000e+01 
639.621  3.10000000e+01 
639.082  3.30000000e+01 
638.543  3.40000000e+01 
638.004  4.60000000e+01 
637.465  4.50000000e+01 
636.926  4.50000000e+01 
636.387  3.20000000e+01 
635.848  2.80000000e+01 
635.309  3.00000000e+01 
634.770  3.80000000e+01 
634.230  3.00000000e+01 
633.691  4.10000000e+01 
633.152  3.80000000e+01 
632.613  3.20000000e+01 
632.074  2.70000000e+01 
631.535  3.10000000e+01 
630.996  3.60000000e+01 
630.457  4.50000000e+01 
629.918  3.10000000e+01 
629.379  3.50000000e+01 
628.840  3.30000000e+01 
628.301  3.30000000e+01 
627.762  4.90000000e+01 
627.223  3.80000000e+01 
626.684  3.90000000e+01 
626.145  3.10000000e+01 
625.605  3.70000000e+01 
625.066  3.50000000e+01 
624.527  2.70000000e+01 
623.988  2.60000000e+01 
623.449  2.50000000e+01 
622.910  4.00000000e+01 
622.371  2.80000000e+01 
621.832  3.10000000e+01 
621.293  3.50000000e+01 
620.754  3.00000000e+01 
620.215  3.20000000e+01 
619.676  4.60000000e+01 
619.137  3.90000000e+01 
618.598  3.40000000e+01 
618.059  4.40000000e+01 
617.520  3.90000000e+01 
616.980  2.70000000e+01 
616.441  3.70000000e+01 
615.902  4.20000000e+01 
615.363  4.90000000e+01 
614.824  3.30000000e+01 
614.285  4.60000000e+01 
613.746  2.80000000e+01 
613.207  3.30000000e+01 
612.668  4.80000000e+01 
612.129  4.00000000e+01 
611.590  3.80000000e+01 
611.051  3.50000000e+01 
610.512  3.70000000e+01 
609.973  2.80000000e+01 
609.434  3.50000000e+01 
608.895  3.90000000e+01 
608.355  4.50000000e+01 
607.816  3.80000000e+01 
607.277  4.80000000e+01 
606.738  2.80000000e+01 
606.199  4.00000000e+01 
605.660  3.80000000e+01 
605.121  3.40000000e+01 
604.582  3.90000000e+01 
604.043  2.30000000e+01 
603.504  3.50000000e+01 
602.965  3.00000000e+01 
602.426  3.80000000e+01 
601.887  4.20000000e+01 
601.348  3.90000000e+01 
600.809  3.20000000e+01 
600.270  3.30000000e+01 
599.730  3.60000000e+01 
599.191  4.00000000e+01 
598.652  2.60000000e+01 
598.113  2.20000000e+01 
597.574  5.40000000e+01 
597.035  2.90000000e+01 
596.496  3.50000000e+01 
595.957  4.00000000e+01 
595.418  2.90000000e+01 
594.879  3.50000000e+01 
594.340  3.30000000e+01 
593.801  3.40000000e+01 
593.262  3.50000000e+01 
592.723  3.00000000e+01 
592.184  3.00000000e+01 
591.645  4.50000000e+01 
591.105  4.10000000e+01 
590.566  3.40000000e+01 
590.027  3.40000000e+01 
589.488  4.90000000e+01 
588.949  3.10000000e+01 
588.410  3.90000000e+01 
587.871  4.20000000e+01 
587.332  3.00000000e+01 
586.793  2.10000000e+01 
586.254  3.70000000e+01 
585.715  3.80000000e+01 
585.176  3.60000000e+01 
584.637  4.00000000e+01 
584.098  2.60000000e+01 
583.559  3.60000000e+01 
583.020  2.50000000e+01 
582.480  4.00000000e+01 
581.941  2.70000000e+01 
581.402  2.70000000e+01 
580.863  3.10000000e+01 
580.324  3.00000000e+01 
579.785  2.60000000e+01 
579.246  3.70000000e+01 
578.707  3.40000000e+01 
578.168  1.70000000e+01 
577.629  3.50000000e+01 
577.090  3.80000000e+01 
576.551  3.70000000e+01 
576.012  3.50000000e+01 
575.473  3.80000000e+01 
574.934  3.30000000e+01 
574.395  3.50000000e+01 
573.855  3.30000000e+01 
573.316  2.70000000e+01 
572.777  3.10000000e+01 
572.238  2.60000000e+01 
571.699  3.30000000e+01 
571.160  3.10000000e+01 
570.621  4.00000000e+01 
570.082  4.00000000e+01 
569.543  3.00000000e+01 
569.004  3.30000000e+01 
568.465  3.40000000e+01 
567.926  3.50000000e+01 
567.387  2.80000000e+01 
566.848  3.10000000e+01 
566.309  3.20000000e+01 
565.770  3.50000000e+01 
565.230  3.70000000e+01 
564.691  4.40000000e+01 
564.152  3.60000000e+01 
563.613  3.40000000e+01 
563.074  3.50000000e+01 
562.535  3.30000000e+01 
561.996  3.30000000e+01 
561.457  3.20000000e+01 
560.918  3.60000000e+01 
560.379  2.80000000e+01 
559.840  2.60000000e+01 
559.301  3.50000000e+01 
558.762  2.40000000e+01 
558.223  4.00000000e+01 
557.684  2.80000000e+01 
557.145  2.90000000e+01 
556.605  3.00000000e+01 
556.066  3.80000000e+01 
555.527  3.90000000e+01 
554.988  3.20000000e+01 
554.449  2.60000000e+01 
553.910  3.60000000e+01 
553.371  3.50000000e+01 
552.832  2.90000000e+01 
552.293  2.50000000e+01 
551.754  2.80000000e+01 
551.215  3.00000000e+01 
550.676  2.50000000e+01 
550.137  3.50000000e+01 
549.598  3.00000000e+01 
549.059  4.20000000e+01 
548.520  2.60000000e+01 
547.980  3.20000000e+01 
547.441  2.10000000e+01 
546.902  2.80000000e+01 
546.363  2.80000000e+01 
545.824  2.20000000e+01 
545.285  2.60000000e+01 
544.746  2.80000000e+01 
544.207  3.20000000e+01 
543.668  3.30000000e+01 
543.129  5.70000000e+01 
542.590  7.80000000e+01 
542.051  1.14000000e+02 
541.512  1.02000000e+02 
540.973  9.30000000e+01 
540.434  6.40000000e+01 
539.895  4.90000000e+01 
539.355  5.10000000e+01 
538.816  3.20000000e+01 
538.277  4.10000000e+01 
537.738  3.80000000e+01 
537.199  2.70000000e+01 
536.660  3.10000000e+01 
536.121  1.90000000e+01 
535.582  2.50000000e+01 
535.043  2.60000000e+01 
534.504  3.10000000e+01 
533.965  1.60000000e+01 
533.426  3.00000000e+01 
532.887  1.70000000e+01 
532.348  1.80000000e+01 
531.809  1.70000000e+01 
531.270  2.00000000e+01 
530.730  2.40000000e+01 
530.191  2.10000000e+01 
529.652  1.80000000e+01 
529.113  2.30000000e+01 
528.574  2.60000000e+01 
528.035  2.50000000e+01 
527.496  1.60000000e+01 
526.957  2.40000000e+01 
526.418  2.20000000e+01 
525.879  1.60000000e+01 
525.340  1.50000000e+01 
524.801  1.80000000e+01 
524.262  2.10000000e+01 
523.723  2.40000000e+01 
523.184  2.70000000e+01 
522.645  2.10000000e+01 
522.105  2.10000000e+01 
521.566  1.90000000e+01 
521.027  1.80000000e+01 
520.488  2.50000000e+01 
519.949  1.60000000e+01 
519.410  2.10000000e+01 
518.871  1.70000000e+01 
518.332  2.60000000e+01 
517.793  1.90000000e+01 
517.254  2.50000000e+01 
516.715  1.40000000e+01 
516.176  2.10000000e+01 
515.637  2.30000000e+01 
515.098  2.20000000e+01 
514.559  2.30000000e+01 
514.020  2.20000000e+01 
513.480  2.10000000e+01 
512.941  1.80000000e+01 
512.402  2.50000000e+01 
511.863  2.40000000e+01 
511.324  2.60000000e+01 
510.785  2.10000000e+01 
510.246  1.60000000e+01 
509.707  3.00000000e+01 
509.168  2.10000000e+01 
508.629  3.00000000e+01 
508.090  2.10000000e+01 
507.551  2.60000000e+01 
507.012  3.00000000e+01 
506.473  1.70000000e+01 
505.934  2.50000000e+01 
505.395  2.30000000e+01 
504.855  2.60000000e+01 
504.316  1.80000000e+01 
503.777  2.50000000e+01 
503.238  1.30000000e+01 
502.699  2.10000000e+01 
502.160  1.70000000e+01 
501.621  1.70000000e+01 
501.082  2.40000000e+01 
500.543  1.90000000e+01 
500.004  1.90000000e+01 
499.465  2.40000000e+01 
498.926  1.60000000e+01 
498.387  2.00000000e+01 
497.848  1.90000000e+01 
497.309  2.80000000e+01 
496.770  1.70000000e+01 
496.230  2.10000000e+01 
495.691  1.10000000e+01 
495.152  1.40000000e+01 
494.613  2.20000000e+01 
494.074  2.70000000e+01 
493.535  2.50000000e+01 
492.996  2.70000000e+01 
492.457  2.70000000e+01 
491.918  2.00000000e+01 
491.379  2.70000000e+01 
490.840  1.30000000e+01 
490.301  1.60000000e+01 
489.762  2.20000000e+01 
489.223  2.30000000e+01 
488.684  2.20000000e+01 
488.145  2.30000000e+01 
487.605  2.70000000e+01 
487.066  2.20000000e+01 
486.527  2.50000000e+01 
485.988  2.50000000e+01 
485.449  2.20000000e+01 
484.910  2.50000000e+01 
484.371  1.80000000e+01 
483.832  1.50000000e+01 
483.293  1.70000000e+01 
482.754  1.40000000e+01 
482.215  2.00000000e+01 
481.676  2.40000000e+01 
481.137  2.30000000e+01 
480.598  1.80000000e+01 
480.059  2.10000000e+01 
479.520  2.50000000e+01 
478.980  2.40000000e+01 
478.441  1.90000000e+01 
477.902  2.00000000e+01 
477.363  1.90000000e+01 
476.824  2.70000000e+01 
476.285  1.80000000e+01 
475.746  2.30000000e+01 
475.207  2.30000000e+01 
474.668  1.60000000e+01 
474.129  2.90000000e+01 
473.590  1.80000000e+01 
473.051  2.60000000e+01 
472.512  1.80000000e+01 
471.973  1.50000000e+01 
471.434  2.10000000e+01 
470.895  2.30000000e+01 
470.355  1.80000000e+01 
469.816  1.80000000e+01 
469.277  2.60000000e+01 
468.738  2.10000000e+01 
468.199  2.70000000e+01 
467.660  1.30000000e+01 
467.121  2.70000000e+01 
466.582  2.40000000e+01 
466.043  1.10000000e+01 
465.504  1.80000000e+01 
464.965  1.60000000e+01 
464.426  1.80000000e+01 
463.887  2.00000000e+01 
463.348  2.60000000e+01 
462.809  1.90000000e+01 
462.270  2.40000000e+01 
461.730  1.20000000e+01 
461.191  1.90000000e+01 
460.652  3.00000000e+01 
460.113  1.80000000e+01 
459.574  1.60000000e+01 
459.035  2.10000000e+01 
458.496  2.20000000e+01 
457.957  2.10000000e+01 
457.418  2.10000000e+01 
456.879  2.10000000e+01 
456.340  2.70000000e+01 
455.801  2.30000000e+01 
455.262  2.10000000e+01 
454.723  3.00000000e+01 
454.184  2.50000000e+01 
453.645  2.40000000e+01 
453.105  3.90000000e+01 
452.566  2.20000000e+01 
452.027  1.50000000e+01 
451.488  2.60000000e+01 
450.949  2.00000000e+01 
450.410  1.80000000e+01 
449.871  2.10000000e+01 
449.332  1.90000000e+01 
448.793  2.00000000e+01 
448.254  2.60000000e+01 
447.715  2.00000000e+01 
447.176  2.00000000e+01 
446.637  2.20000000e+01 
446.098  1.70000000e+01 
445.559  2.30000000e+01 
445.020  2.30000000e+01 
444.480  2.50000000e+01 
443.941  1.80000000e+01 
443.402  2.50000000e+01 
442.863  2.00000000e+01 
442.324  2.60000000e+01 
441.785  1.70000000e+01 
441.246  2.00000000e+01 
440.707  1.40000000e+01 
440.168  1.90000000e+01 
439.629  1.30000000e+01 
439.090  1.30000000e+01 
438.551  1.10000000e+01 
438.012  2.20000000e+01 
437.473  9.00000000e+00 
436.934  1.40000000e+01 
436.395  2.10000000e+01 
435.855  1.80000000e+01 
435.316  1.80000000e+01 
434.777  1.50000000e+01 
434.238  1.60000000e+01 
433.699  1.10000000e+01 
433.160  1.30000000e+01 
432.621  2.00000000e+01 
432.082  2.30000000e+01 
431.543  1.50000000e+01 
431.004  1.10000000e+01 
430.465  1.60000000e+01 
429.926  2.00000000e+01 
429.387  1.60000000e+01 
428.848  1.60000000e+01 
428.309  2.50000000e+01 
427.770  2.00000000e+01 
427.230  1.90000000e+01 
426.691  1.70000000e+01 
426.152  2.20000000e+01 
425.613  1.60000000e+01 
425.074  2.00000000e+01 
424.535  2.60000000e+01 
423.996  1.50000000e+01 
423.457  2.90000000e+01 
422.918  2.30000000e+01 
422.379  1.80000000e+01 
421.840  2.10000000e+01 
421.301  1.50000000e+01 
420.762  1.60000000e+01 
420.223  2.10000000e+01 
419.684  1.30000000e+01 
419.145  2.00000000e+01 
418.605  2.00000000e+01 
418.066  1.00000000e+01 
417.527  2.50000000e+01 
416.988  1.60000000e+01 
416.449  1.50000000e+01 
415.910  1.80000000e+01 
415.371  1.90000000e+01 
414.832  1.20000000e+01 
414.293  2.40000000e+01 
413.754  1.40000000e+01 
413.215  1.60000000e+01 
412.676  1.30000000e+01 
412.137  1.70000000e+01 
411.598  2.20000000e+01 
411.059  1.50000000e+01 
410.520  1.60000000e+01 
409.980  2.60000000e+01 
409.441  1.80000000e+01 
408.902  2.00000000e+01 
408.363  1.80000000e+01 
407.824  1.60000000e+01 
407.285  1.90000000e+01 
406.746  1.20000000e+01 
406.207  1.20000000e+01 
405.668  1.90000000e+01 
405.129  1.10000000e+01 
404.590  8.00000000e+00 
404.051  1.70000000e+01 
403.512  1.40000000e+01 
402.973  2.50000000e+01 
402.434  9.00000000e+00 
401.895  1.30000000e+01 
401.355  1.70000000e+01 
400.816  1.80000000e+01 
400.277  8.00000000e+00 
399.738  2.10000000e+01 
399.199  2.00000000e+01 
398.660  1.30000000e+01 
398.121  1.80000000e+01 
397.582  1.40000000e+01 
397.043  1.80000000e+01 
396.504  1.30000000e+01 
395.965  1.10000000e+01 
395.426  1.90000000e+01 
394.887  1.40000000e+01 
394.348  1.20000000e+01 
393.809  1.40000000e+01 
393.270  1.60000000e+01 
392.730  1.50000000e+01 
392.191  1.10000000e+01 
391.652  1.70000000e+01 
391.113  1.10000000e+01 
390.574  1.70000000e+01 
390.035  1.50000000e+01 
389.496  2.20000000e+01 
388.957  2.10000000e+01 
388.418  2.00000000e+01 
387.879  1.70000000e+01 
387.340  1.90000000e+01 
386.801  2.50000000e+01 
386.262  1.50000000e+01 
385.723  1.10000000e+01 
385.184  1.70000000e+01 
384.645  1.90000000e+01 
384.105  2.00000000e+01 
383.566  1.90000000e+01 
383.027  2.20000000e+01 
382.488  1.20000000e+01 
381.949  1.50000000e+01 
381.410  1.20000000e+01 
380.871  2.30000000e+01 
380.332  8.00000000e+00 
379.793  2.60000000e+01 
379.254  1.70000000e+01 
378.715  1.20000000e+01 
378.176  1.70000000e+01 
377.637  2.60000000e+01 
377.098  1.10000000e+01 
376.559  5.00000000e+00 
376.020  1.70000000e+01 
375.480  1.70000000e+01 
374.941  1.00000000e+01 
374.402  1.20000000e+01 
373.863  1.30000000e+01 
373.324  1.30000000e+01 
372.785  1.60000000e+01 
372.246  1.60000000e+01 
371.707  1.90000000e+01 
371.168  7.00000000e+00 
370.629  1.60000000e+01 
370.090  1.50000000e+01 
369.551  1.10000000e+01 
369.012  1.70000000e+01 
368.473  1.20000000e+01 
367.934  1.70000000e+01 
367.395  1.80000000e+01 
366.855  1.00000000e+01 
366.316  2.20000000e+01 
365.777  2.00000000e+01 
365.238  1.40000000e+01 
364.699  1.50000000e+01 
364.160  2.10000000e+01 
363.621  1.00000000e+01 
363.082  1.00000000e+01 
362.543  1.00000000e+01 
362.004  1.90000000e+01 
361.465  1.90000000e+01 
360.926  1.40000000e+01 
360.387  1.50000000e+01 
359.848  1.80000000e+01 
359.309  1.80000000e+01 
358.770  1.30000000e+01 
358.230  1.70000000e+01 
357.691  1.50000000e+01 
357.152  1.10000000e+01 
356.613  2.10000000e+01 
356.074  1.80000000e+01 
355.535  1.90000000e+01 
354.996  1.90000000e+01 
354.457  9.00000000e+00 
353.918  2.20000000e+01 
353.379  1.60000000e+01 
352.840  1.00000000e+01 
352.301  1.70000000e+01 
351.762  8.00000000e+00 
351.223  1.70000000e+01 
350.684  1.50000000e+01 
350.145  1.70000000e+01 
349.605  1.30000000e+01 
349.066  9.00000000e+00 
348.527  7.00000000e+00 
347.988  1.60000000e+01 
347.449  1.30000000e+01 
346.910  1.60000000e+01 
346.371  1.50000000e+01 
345.832  2.20000000e+01 
345.293  1.50000000e+01 
344.754  1.50000000e+01 
344.215  2.30000000e+01 
343.676  1.50000000e+01 
343.137  1.10000000e+01 
342.598  2.00000000e+01 
342.059  1.10000000e+01 
341.520  1.40000000e+01 
340.980  1.50000000e+01 
340.441  2.60000000e+01 
339.902  1.00000000e+01 
339.363  1.40000000e+01 
338.824  1.00000000e+01 
338.285  2.20000000e+01 
337.746  1.40000000e+01 
337.207  1.70000000e+01 
336.668  1.80000000e+01 
336.129  7.00000000e+00 
335.590  2.40000000e+01 
335.051  1.40000000e+01 
334.512  1.20000000e+01 
333.973  1.90000000e+01 
333.434  1.70000000e+01 
332.895  2.10000000e+01 
332.355  1.70000000e+01 
331.816  7.00000000e+00 
331.277  1.00000000e+01 
330.738  1.60000000e+01 
330.199  1.20000000e+01 
329.660  1.40000000e+01 
329.121  2.20000000e+01 
328.582  1.00000000e+01 
328.043  1.30000000e+01 
327.504  1.70000000e+01 
326.965  1.80000000e+01 
326.426  1.50000000e+01 
325.887  1.10000000e+01 
325.348  2.50000000e+01 
324.809  1.40000000e+01 
324.270  1.30000000e+01 
323.730  1.30000000e+01 
323.191  1.80000000e+01 
322.652  1.30000000e+01 
322.113  1.20000000e+01 
321.574  8.00000000e+00 
321.035  1.20000000e+01 
320.496  1.90000000e+01 
319.957  1.10000000e+01 
319.418  1.30000000e+01 
318.879  1.00000000e+01 
318.340  8.00000000e+00 
317.801  1.10000000e+01 
317.262  2.10000000e+01 
316.723  1.10000000e+01 
316.184  1.20000000e+01 
315.645  1.40000000e+01 
315.105  1.30000000e+01 
314.566  1.50000000e+01 
314.027  1.50000000e+01 
313.488  2.00000000e+01 
312.949  1.50000000e+01 
312.410  1.50000000e+01 
311.871  2.00000000e+01 
311.332  1.60000000e+01 
310.793  1.10000000e+01 
310.254  1.40000000e+01 
309.715  1.80000000e+01 
309.176  9.00000000e+00 
308.637  1.00000000e+01 
308.098  2.40000000e+01 
307.559  1.30000000e+01 
307.020  1.20000000e+01 
306.480  1.30000000e+01 
305.941  2.00000000e+01 
305.402  2.20000000e+01 
304.863  1.30000000e+01 
304.324  2.60000000e+01 
303.785  2.50000000e+01 
303.246  2.20000000e+01 
302.707  1.70000000e+01 
302.168  1.50000000e+01 
301.629  1.60000000e+01 
301.090  8.00000000e+00 
300.551  1.10000000e+01 
300.012  2.40000000e+01 
299.473  1.50000000e+01 
298.934  1.50000000e+01 
298.395  2.20000000e+01 
297.855  1.30000000e+01 
297.316  1.00000000e+01 
296.777  8.00000000e+00 
296.238  1.80000000e+01 
295.699  2.20000000e+01 
295.160  1.50000000e+01 
294.621  2.20000000e+01 
294.082  1.90000000e+01 
293.543  1.90000000e+01 
293.004  8.00000000e+00 
292.465  1.80000000e+01 
291.926  1.50000000e+01 
291.387  1.80000000e+01 
290.848  2.00000000e+01 
290.309  1.00000000e+01 
289.770  1.30000000e+01 
289.230  1.50000000e+01 
288.691  1.50000000e+01 
288.152  1.00000000e+01 
287.613  1.90000000e+01 
287.074  1.70000000e+01 
286.535  1.00000000e+01 
285.996  1.20000000e+01 
285.457  1.10000000e+01 
284.918  1.10000000e+01 
284.379  1.10000000e+01 
283.840  1.00000000e+01 
283.301  1.30000000e+01 
282.762  1.50000000e+01 
282.223  1.80000000e+01 
281.684  1.40000000e+01 
281.145  1.70000000e+01 
280.605  1.40000000e+01 
280.066  8.00000000e+00 
279.527  1.30000000e+01 
278.988  1.20000000e+01 
278.449  8.00000000e+00 
277.910  1.60000000e+01 
277.371  1.30000000e+01 
276.832  1.60000000e+01 
276.293  1.00000000e+01 
275.754  1.20000000e+01 
275.215  1.40000000e+01 
274.676  1.80000000e+01 
274.137  1.90000000e+01 
273.598  1.20000000e+01 
273.059  1.10000000e+01 
272.520  1.50000000e+01 
271.980  1.50000000e+01 
271.441  1.30000000e+01 
270.902  1.50000000e+01 
270.363  1.10000000e+01 
269.824  1.00000000e+01 
269.285  1.40000000e+01 
268.746  1.10000000e+01 
268.207  1.50000000e+01 
267.668  1.20000000e+01 
267.129  8.00000000e+00 
266.590  6.00000000e+00 
266.051  1.70000000e+01 
265.512  1.00000000e+01 
264.973  1.00000000e+01 
264.434  1.60000000e+01 
263.895  1.40000000e+01 
263.355  8.00000000e+00 
262.816  1.80000000e+01 
262.277  1.60000000e+01 
261.738  1.20000000e+01 
261.199  1.10000000e+01 
260.660  1.30000000e+01 
260.121  1.10000000e+01 
259.582  1.20000000e+01 
259.043  9.00000000e+00 
258.504  1.40000000e+01 
257.965  1.10000000e+01 
257.426  2.10000000e+01 
256.887  1.30000000e+01 
256.348  1.20000000e+01 
255.809  1.10000000e+01 
255.270  1.40000000e+01 
254.730  1.10000000e+01 
254.191  1.60000000e+01 
253.652  1.40000000e+01 
253.113  1.50000000e+01 
252.574  5.00000000e+00 
252.035  1.40000000e+01 
251.496  1.40000000e+01 
250.957  1.00000000e+01 
250.418  1.40000000e+01 
249.879  8.00000000e+00 
249.340  1.60000000e+01 
248.801  1.10000000e+01 
248.262  1.00000000e+01 
247.723  1.20000000e+01 
247.184  1.40000000e+01 
246.645  1.10000000e+01 
246.105  1.10000000e+01 
245.566  1.40000000e+01 
245.027  7.00000000e+00 
244.488  9.00000000e+00 
243.949  1.30000000e+01 
243.410  2.20000000e+01 
242.871  1.60000000e+01 
242.332  1.00000000e+01 
241.793  1.20000000e+01 
241.254  1.40000000e+01 
240.715  1.70000000e+01 
240.176  9.00000000e+00 
239.637  1.20000000e+01 
239.098  1.30000000e+01 
238.559  1.30000000e+01 
238.020  1.40000000e+01 
237.480  1.10000000e+01 
236.941  1.10000000e+01 
236.402  8.00000000e+00 
235.863  2.30000000e+01 
235.324  1.80000000e+01 
234.785  1.60000000e+01 
234.246  9.00000000e+00 
233.707  1.70000000e+01 
233.168  1.70000000e+01 
232.629  1.10000000e+01 
232.090  1.80000000e+01 
231.551  1.40000000e+01 
231.012  1.20000000e+01 
230.473  1.00000000e+01 
229.934  1.20000000e+01 
229.395  1.50000000e+01 
228.855  2.40000000e+01 
228.316  1.40000000e+01 
227.777  7.00000000e+00 
227.238  1.10000000e+01 
226.699  7.00000000e+00 
226.160  1.00000000e+01 
225.621  7.00000000e+00 
225.082  1.90000000e+01 
224.543  1.60000000e+01 
224.004  1.00000000e+01 
223.465  1.00000000e+01 
222.926  1.00000000e+01 
222.387  1.00000000e+01 
221.848  1.20000000e+01 
221.309  1.90000000e+01 
220.770  1.00000000e+01 
220.230  1.30000000e+01 
219.691  1.70000000e+01 
219.152  9.00000000e+00 
218.613  1.40000000e+01 
218.074  1.10000000e+01 
217.535  1.30000000e+01 
216.996  1.90000000e+01 
216.457  2.40000000e+01 
215.918  1.50000000e+01 
215.379  1.70000000e+01 
214.840  1.40000000e+01 
214.301  1.00000000e+01 
213.762  1.30000000e+01 
213.223  1.10000000e+01 
212.684  1.10000000e+01 
212.145  2.20000000e+01 
211.605  1.80000000e+01 
211.066  1.20000000e+01 
210.527  1.60000000e+01 
209.988  1.10000000e+01 
209.449  1.80000000e+01 
208.910  1.80000000e+01 
208.371  1.00000000e+01 
207.832  1.30000000e+01 
207.293  1.60000000e+01 
206.754  1.30000000e+01 
206.215  1.80000000e+01 
205.676  1.70000000e+01 
205.137  1.80000000e+01 
204.598  2.30000000e+01 
204.059  2.10000000e+01 
203.520  1.90000000e+01 
202.980  4.00000000e+00 
202.441  1.70000000e+01 
201.902  1.20000000e+01 
201.363  1.40000000e+01 
200.824  9.00000000e+00 
200.285  1.20000000e+01 
199.746  1.20000000e+01 
199.207  1.90000000e+01 
198.668  1.80000000e+01 
198.129  1.40000000e+01 
197.590  9.00000000e+00 
197.051  1.20000000e+01 
196.512  1.30000000e+01 
195.973  1.00000000e+01 
195.434  9.00000000e+00 
194.895  1.70000000e+01 
194.355  7.00000000e+00 
193.816  1.30000000e+01 
193.277  1.10000000e+01 
192.738  1.00000000e+01 
192.199  1.30000000e+01 
191.660  9.00000000e+00 
191.121  1.60000000e+01 
190.582  2.00000000e+01 
190.043  1.00000000e+01 
189.504  1.20000000e+01 
188.965  8.00000000e+00 
188.426  1.20000000e+01 
187.887  1.50000000e+01 
187.348  1.60000000e+01 
186.809  1.00000000e+01 
186.270  1.90000000e+01 
185.730  1.00000000e+01 
185.191  1.80000000e+01 
184.652  1.20000000e+01 
184.113  1.30000000e+01 
183.574  1.00000000e+01 
183.035  1.20000000e+01 
182.496  1.40000000e+01 
181.957  1.40000000e+01 
181.418  1.40000000e+01 
180.879  1.30000000e+01 
180.340  1.10000000e+01 
179.801  1.30000000e+01 
179.262  8.00000000e+00 
178.723  1.30000000e+01 
178.184  1.60000000e+01 
177.645  1.90000000e+01 
177.105  1.00000000e+01 
176.566  1.90000000e+01 
176.027  2.10000000e+01 
175.488  2.30000000e+01 
174.949  1.90000000e+01 
174.410  2.20000000e+01 
173.871  2.00000000e+01 
173.332  1.70000000e+01 
172.793  1.30000000e+01 
172.254  1.70000000e+01 
171.715  1.60000000e+01 
171.176  1.00000000e+01 
170.637  1.90000000e+01 
170.098  1.70000000e+01 
169.559  2.40000000e+01 
169.020  2.40000000e+01 
168.480  2.20000000e+01 
167.941  1.30000000e+01 
167.402  1.60000000e+01 
166.863  1.70000000e+01 
166.324  1.30000000e+01 
165.785  1.10000000e+01 
165.246  9.00000000e+00 
164.707  1.90000000e+01 
164.168  1.40000000e+01 
163.629  1.70000000e+01 
163.090  1.20000000e+01 
162.551  1.90000000e+01 
162.012  1.40000000e+01 
161.473  1.00000000e+01 
160.934  1.30000000e+01 
160.395  2.10000000e+01 
159.855  1.60000000e+01 
159.316  1.20000000e+01 
158.777  9.00000000e+00 
158.238  1.40000000e+01 
157.699  1.00000000e+01 
157.160  1.00000000e+01 
156.621  1.20000000e+01 
156.082  1.10000000e+01 
155.543  7.00000000e+00 
155.004  1.10000000e+01 
154.465  9.00000000e+00 
153.926  2.40000000e+01 
153.387  2.20000000e+01 
152.848  2.40000000e+01 
152.309  1.50000000e+01 
151.770  1.40000000e+01 
151.230  1.00000000e+01 
150.691  1.00000000e+01 
150.152  1.30000000e+01 
149.613  1.70000000e+01 
149.074  1.70000000e+01 
148.535  2.90000000e+01 
147.996  1.90000000e+01 
147.457  1.50000000e+01 
146.918  8.00000000e+00 
146.379  8.00000000e+00 
145.840  9.00000000e+00 
145.301  1.40000000e+01 
144.762  8.00000000e+00 
144.223  5.00000000e+00 
143.684  1.60000000e+01 
143.145  6.00000000e+00 
142.605  9.00000000e+00 
142.066  7.00000000e+00 
141.527  7.00000000e+00 
140.988  1.00000000e+01 
140.449  8.00000000e+00 
139.910  1.00000000e+00 
139.371  1.20000000e+01 
138.832  3.00000000e+00 
138.293  1.10000000e+01 
137.754  1.00000000e+00 
137.215  9.00000000e+00 
136.676  6.00000000e+00 
136.137  3.00000000e+00 
135.598  8.00000000e+00 
135.059  7.00000000e+00 
134.520  9.00000000e+00 
133.980  1.00000000e+01 
133.441  1.20000000e+01 
132.902  9.00000000e+00 
132.363  5.00000000e+00 
131.824  1.10000000e+01 
131.285  6.00000000e+00 
130.746  6.00000000e+00 
130.207  7.00000000e+00 
129.668  6.00000000e+00 
129.129  7.00000000e+00 
128.590  6.00000000e+00 
128.051  7.00000000e+00 
127.512  1.20000000e+01 
126.973  3.00000000e+00 
126.434  7.00000000e+00 
125.895  1.00000000e+01 
125.355  8.00000000e+00 
124.816  6.00000000e+00 
124.277  6.00000000e+00 
123.738  9.00000000e+00 
123.199  9.00000000e+00 
122.660  5.00000000e+00 
122.121  6.00000000e+00 
121.582  6.00000000e+00 
121.043  3.00000000e+00 
120.504  7.00000000e+00 
119.965  7.00000000e+00 
119.426  7.00000000e+00 
118.887  6.00000000e+00 
118.348  9.00000000e+00 
117.809  4.00000000e+00 
117.270  6.00000000e+00 
116.730  7.00000000e+00 
116.191  1.00000000e+01 
115.652  7.00000000e+00 
115.113  1.00000000e+01 
114.574  4.00000000e+00 
114.035  4.00000000e+00 
113.496  5.00000000e+00 
112.957  1.10000000e+01 
112.418  9.00000000e+00 
111.879  1.40000000e+01 
111.340  7.00000000e+00 
110.801  7.00000000e+00 
110.262  6.00000000e+00 
109.723  4.00000000e+00 
109.184  1.20000000e+01 
108.645  6.00000000e+00 
108.105  1.00000000e+01 
107.566  7.00000000e+00 
107.027  1.00000000e+01 
106.488  4.00000000e+00 
105.949  8.00000000e+00 
105.410  7.00000000e+00 
104.871  4.00000000e+00 
104.332  7.00000000e+00 
103.793  1.00000000e+01 
103.254  8.00000000e+00 
102.715  6.00000000e+00 
102.176  7.00000000e+00 
101.637  9.00000000e+00 
101.098  2.00000000e+00 
100.559  1.10000000e+01 
100.020  7.00000000e+00 
99.480   1.00000000e+01 
98.941   5.00000000e+00 
98.402   5.00000000e+00 
97.863   6.00000000e+00 
97.324   8.00000000e+00 
96.785   5.00000000e+00 
96.246   4.00000000e+00 
95.707   6.00000000e+00 
95.168   7.00000000e+00 
94.629   6.00000000e+00 
94.090   8.00000000e+00 
93.551   8.00000000e+00 
93.012   9.00000000e+00 
92.473   8.00000000e+00 
91.934   5.00000000e+00 
91.395   8.00000000e+00 
90.855   9.00000000e+00 
90.316   7.00000000e+00 
89.777   4.00000000e+00 
89.238   4.00000000e+00 
88.699   3.00000000e+00 
88.160   5.00000000e+00 
87.621   3.00000000e+00 
87.082   6.00000000e+00 
86.543   1.10000000e+01 
86.004   7.00000000e+00 
85.465   5.00000000e+00 
84.926   9.00000000e+00 
84.387   7.00000000e+00 
83.848   8.00000000e+00 
83.309   7.00000000e+00 
82.770   7.00000000e+00 
82.230   9.00000000e+00 
81.691   8.00000000e+00 
81.152   6.00000000e+00 
80.613   8.00000000e+00 
80.074   9.00000000e+00 
79.535   3.00000000e+00 
78.996   1.00000000e+01 
78.457   6.00000000e+00 
77.918   6.00000000e+00 
77.379   9.00000000e+00 
76.840   6.00000000e+00 
76.301   5.00000000e+00 
75.762   1.10000000e+01 
75.223   7.00000000e+00 
74.684   4.00000000e+00 
74.145   6.00000000e+00 
73.605   7.00000000e+00 
73.066   3.00000000e+00 
72.527   6.00000000e+00 
71.988   3.00000000e+00 
71.449   5.00000000e+00 
70.910   6.00000000e+00 
70.371   5.00000000e+00 
69.832   7.00000000e+00 
69.293   5.00000000e+00 
68.754   3.00000000e+00 
68.215   2.00000000e+00 
67.676   8.00000000e+00 
67.137   4.00000000e+00 
66.598   3.00000000e+00 
66.059   3.00000000e+00 
65.520   6.00000000e+00 
64.980   6.00000000e+00 
64.441   1.00000000e+00 
63.902   3.00000000e+00 
63.363   3.00000000e+00 
62.824   4.00000000e+00 
62.285   7.00000000e+00 
61.746   5.00000000e+00 
61.207   6.00000000e+00 
60.668   3.00000000e+00 
60.129   3.00000000e+00 
59.590   7.00000000e+00 
59.051   2.00000000e+00 
58.512   6.00000000e+00 
57.973   3.00000000e+00 
57.434   7.00000000e+00 
56.895   2.00000000e+00 
56.355   4.00000000e+00 
55.816   4.00000000e+00 
55.277   4.00000000e+00 
54.738   6.00000000e+00 
54.199   3.00000000e+00 
53.660   4.00000000e+00 
53.121   5.00000000e+00 
52.582   7.00000000e+00 
52.043   6.00000000e+00 
51.504   5.00000000e+00 
50.965   3.00000000e+00 
50.426   6.00000000e+00 
49.887   2.00000000e+00 
49.348   1.00000000e+00 
48.809   4.00000000e+00 
48.270   2.00000000e+00 
47.730   5.00000000e+00 
47.191   3.00000000e+00 
46.652   5.00000000e+00 
46.113   2.00000000e+00 
45.574   2.00000000e+00 
45.035   3.00000000e+00 
44.496   3.00000000e+00 
43.957   9.00000000e+00 
43.418   8.00000000e+00 
42.879   3.00000000e+00 
42.340   2.00000000e+00 
41.801   6.00000000e+00 
41.262   2.00000000e+00 
40.723   5.00000000e+00 
40.184   2.00000000e+00 
39.645   5.00000000e+00 
39.105   5.00000000e+00 
38.566   4.00000000e+00 
38.027   3.00000000e+00 
37.488   6.00000000e+00 
36.949   6.00000000e+00 
36.410   3.00000000e+00 
35.871   7.00000000e+00 
35.332   7.00000000e+00 
34.793   4.00000000e+00 
34.254   6.00000000e+00 
33.715   4.00000000e+00 
33.176   1.20000000e+01 
32.637   6.00000000e+00 
32.098   6.00000000e+00 
31.559   3.00000000e+00 
31.020   6.00000000e+00 
30.480   5.00000000e+00 
29.941   6.00000000e+00 
29.402   3.00000000e+00 
28.863   4.00000000e+00 
28.324   6.00000000e+00 
27.785   3.00000000e+00 
27.246   7.00000000e+00 
26.707   3.00000000e+00 
26.168   5.00000000e+00 
25.629   1.00000000e+00 
25.090   1.00000000e+00 
24.551   1.00000000e+00 
24.012   1.00000000e+00 
23.473   2.00000000e+00 
22.934   4.00000000e+00 
22.395   3.00000000e+00 
21.855   0.00000000e+00 
21.316   1.00000000e+00 
20.777   3.00000000e+00 
20.238   5.00000000e+00 
19.699   2.00000000e+00 
19.160   1.00000000e+00 
18.621   6.00000000e+00 
18.082   3.00000000e+00 
17.543   3.00000000e+00 
17.004   1.00000000e+00 
16.465   1.00000000e+00 
15.926   3.00000000e+00 
15.387   5.00000000e+00 
14.848   1.00000000e+00 
14.309   3.00000000e+00 
13.770   4.00000000e+00 
13.230   2.00000000e+00 
12.691   2.00000000e+00 
12.152   2.00000000e+00 
11.613   2.00000000e+00 
11.074   1.00000000e+00 
10.535   3.00000000e+00 
9.996    3.00000000e+00 
9.457    5.00000000e+00 
8.918    2.00000000e+00 
8.379    3.00000000e+00 
7.840    1.00000000e+00 
7.301    1.00000000e+00 
6.762    1.00000000e+00 
6.223    2.00000000e+00 
5.684    0.00000000e+00 
5.145    0.00000000e+00 
4.605    0.00000000e+00 
4.066    4.00000000e+00 
3.527    2.00000000e+00 
2.988    3.00000000e+00 
2.449    0.00000000e+00 
1.910    7.00000000e+00 
1.371    2.00000000e+00 
0.832    2.00000000e+00 
0.293    1.00000000e+00 

